2Theta,Intensity
20.0084,7218.0
20.0254,7211.7054
20.0424,7205.4109
20.0594,7199.1163
20.0764,7192.8218
20.0934,7186.5272
20.1104,7180.2327
20.1274,7173.9381
20.1444,7167.6435
20.1614,7161.349
20.1784,7155.0544
20.1954,7148.7599
20.2124,7142.4653
20.2294,7136.1708
20.2464,7129.8762
20.2634,7123.5816
20.2804,7117.1283
20.2974,7110.675
20.3144,7104.2217
20.3314,7097.7685
20.3484,7091.3152
20.3654,7084.8619
20.3824,7078.4086
20.3994,7071.9553
20.4164,7065.502
20.4334,7059.0487
20.4504,7052.5954
20.4674,7046.1421
20.4844,7039.6888
20.5014,7033.2355
20.5184,7026.7822
20.5354,7020.3289
20.5524,7013.8756
20.5694,7007.4223
20.5864,7000.969
20.6034,6994.5157
20.6204,6988.0624
20.6374,6981.6091
20.6544,6975.1558
20.6714,6968.7025
20.6884,6962.2492
20.7054,6955.7959
20.7224,6949.3426
20.7394,6942.8893
20.7564,6936.436
20.7734,6929.9827
20.7904,6923.3707
20.8074,6916.7587
20.8244,6910.1466
20.8414,6903.5346
20.8584,6896.9226
20.8754,6890.3105
20.8924,6883.6985
20.9094,6877.0865
20.9264,6870.4744
20.9434,6863.8624
20.9604,6857.2504
20.9774,6850.6383
20.9944,6844.0263
21.0114,6837.4142
21.0284,6830.8022
21.0454,6827.1982
21.0624,6823.5942
21.0794,6819.9902
21.0964,6816.3862
21.1134,6812.7821
21.1304,6809.1781
21.1474,6805.5741
21.1644,6801.9701
21.1814,6798.3661
21.1984,6794.7621
21.2154,6791.1581
21.2324,6787.5541
21.2494,6783.95
21.2664,6780.346
21.2834,6776.742
21.3004,6772.9995
21.3174,6769.257
21.3344,6765.5144
21.3514,6761.7719
21.3684,6758.0294
21.3854,6754.2868
21.4024,6750.5443
21.4194,6746.8018
21.4364,6743.0593
21.4534,6739.3167
21.4704,6735.5742
21.4874,6731.8317
21.5044,6728.0891
21.5214,6724.3466
21.5384,6720.6041
21.5554,6716.8616
21.5724,6713.119
21.5894,6709.3765
21.6064,6705.634
21.6234,6701.8914
21.6404,6698.1489
21.6574,6694.4064
21.6744,6690.6638
21.6914,6686.9213
21.7084,6683.1788
21.7254,6679.4363
21.7424,6675.6937
21.7594,6671.9512
21.7764,6668.2087
21.7934,6664.4661
21.8104,6660.5851
21.8274,6656.7041
21.8444,6652.823
21.8614,6648.942
21.8784,6645.0609
21.8954,6641.1799
21.9124,6637.2988
21.9294,6633.4178
21.9464,6629.5367
21.9634,6625.6557
21.9804,6621.7747
21.9974,6617.8936
22.0144,6614.0126
22.0314,6610.1315
22.0484,6606.2505
22.0654,6602.198
22.0824,6598.1455
22.0994,6594.0929
22.1164,6590.0404
22.1334,6585.9879
22.1504,6581.9354
22.1674,6577.8829
22.1844,6573.8304
22.2014,6569.7779
22.2184,6565.7254
22.2354,6561.6729
22.2524,6557.6203
22.2694,6553.5678
22.2864,6549.5153
22.3034,6545.4628
22.3204,6541.472
22.3374,6537.4811
22.3544,6533.4902
22.3714,6529.4994
22.3884,6525.5085
22.4054,6521.5176
22.4224,6517.5268
22.4394,6513.5359
22.4564,6509.545
22.4734,6505.5542
22.4904,6501.5633
22.5074,6497.5724
22.5244,6493.5816
22.5414,6489.5907
22.5584,6485.5998
22.5754,6481.4922
22.5924,6477.3847
22.6094,6473.2771
22.6264,6469.1695
22.6434,6465.0619
22.6604,6460.9544
22.6774,6456.8468
22.6944,6452.7392
22.7114,6448.6316
22.7284,6444.5241
22.7454,6440.4165
22.7624,6436.3089
22.7794,6432.2013
22.7964,6428.0937
22.8134,6423.9862
22.8304,6419.8786
22.8474,6415.771
22.8644,6411.6634
22.8814,6407.5559
22.8984,6403.4483
22.9154,6399.3407
22.9324,6395.2331
22.9494,6391.1256
22.9664,6387.018
22.9834,6382.9104
23.0004,6378.8028
23.0174,6374.6953
23.0344,6370.5877
23.0514,6366.4801
23.0684,6362.3725
23.0854,6358.1482
23.1024,6353.924
23.1194,6349.6997
23.1364,6345.4754
23.1534,6341.2511
23.1704,6337.0268
23.1874,6332.8025
23.2044,6328.5782
23.2214,6324.3539
23.2384,6320.1297
23.2554,6315.9054
23.2724,6311.6811
23.2894,6307.4568
23.3064,6303.2325
23.3234,6299.0082
23.3404,6297.9298
23.3574,6296.8514
23.3744,6295.773
23.3914,6294.6946
23.4084,6293.6162
23.4254,6292.5379
23.4424,6291.4595
23.4594,6290.3811
23.4764,6289.3027
23.4934,6288.2243
23.5104,6287.1459
23.5274,6286.0675
23.5444,6284.9891
23.5614,6283.9107
23.5784,6282.8323
23.5954,6281.6054
23.6124,6280.3785
23.6294,6279.1516
23.6464,6277.9247
23.6634,6276.6978
23.6804,6275.4709
23.6974,6274.244
23.7144,6273.0171
23.7314,6271.7902
23.7484,6270.5633
23.7654,6269.3365
23.7824,6268.1096
23.7994,6266.8827
23.8164,6265.6558
23.8334,6264.4289
23.8504,6263.202
23.8674,6261.9751
23.8844,6260.7482
23.9014,6259.5213
23.9184,6258.2944
23.9354,6257.0675
23.9524,6255.8406
23.9694,6254.6137
23.9864,6253.3868
24.0034,6252.1599
24.0204,6250.9331
24.0374,6249.7062
24.0544,6248.4793
24.0714,6247.2524
24.0884,6246.0255
24.1054,6244.6501
24.1224,6243.2747
24.1394,6241.8993
24.1564,6240.5239
24.1734,6239.1485
24.1904,6237.7731
24.2074,6236.3977
24.2244,6235.0223
24.2414,6233.647
24.2584,6232.2716
24.2754,6230.8962
24.2924,6229.5208
24.3094,6228.1454
24.3264,6226.77
24.3434,6225.3946
24.3604,6223.8717
24.3774,6222.3487
24.3944,6220.8258
24.4114,6219.3028
24.4284,6217.7799
24.4454,6216.2569
24.4624,6214.734
24.4794,6213.211
24.4964,6211.6881
24.5134,6210.1651
24.5304,6208.6422
24.5474,6207.1193
24.5644,6205.5963
24.5814,6204.0734
24.5984,6202.5504
24.6154,6200.8373
24.6324,6199.1242
24.6494,6197.4112
24.6664,6195.6981
24.6834,6193.985
24.7004,6192.2719
24.7174,6190.5588
24.7344,6188.8457
24.7514,6187.1327
24.7684,6185.4196
24.7854,6183.7065
24.8024,6181.9934
24.8194,6180.2803
24.8364,6178.5672
24.8534,6176.8542
24.8704,6174.9707
24.8874,6173.0873
24.9044,6171.2039
24.9214,6169.3205
24.9384,6167.4371
24.9554,6165.5537
24.9724,6163.6703
24.9894,6161.7868
25.0064,6159.9034
25.0234,6158.02
25.0404,6156.1366
25.0574,6154.2532
25.0744,6152.3698
25.0914,6150.4863
25.1084,6148.6029
25.1254,6148.9811
25.1424,6149.3592
25.1594,6149.7373
25.1764,6150.1154
25.1934,6150.4936
25.2104,6150.8717
25.2274,6151.2498
25.2444,6151.6279
25.2614,6152.0061
25.2784,6152.3842
25.2954,6152.7623
25.3124,6153.1404
25.3294,6153.5186
25.3464,6153.8967
25.3634,6154.2748
25.3804,6154.5015
25.3974,6154.7283
25.4144,6154.955
25.4314,6155.1817
25.4484,6155.4084
25.4654,6155.6352
25.4824,6155.8619
25.4994,6156.0886
25.5164,6156.3154
25.5334,6156.5421
25.5504,6156.7688
25.5674,6156.9955
25.5844,6157.2223
25.6014,6157.449
25.6184,6157.6757
25.6354,6157.7389
25.6524,6157.8022
25.6694,6157.8654
25.6864,6157.9286
25.7034,6157.9918
25.7204,6158.0551
25.7374,6158.1183
25.7544,6158.1815
25.7714,6158.2447
25.7884,6158.308
25.8054,6158.3712
25.8224,6158.4344
25.8394,6158.4976
25.8564,6158.5609
25.8734,6158.6241
25.8904,6158.5102
25.9074,6158.3963
25.9244,6158.2824
25.9414,6158.1685
25.9584,6158.0546
25.9754,6157.9407
25.9924,6157.8268
26.0094,6157.7129
26.0264,6157.599
26.0434,6157.4851
26.0604,6157.3712
26.0774,6157.2573
26.0944,6157.1434
26.1114,6157.0295
26.1284,6156.9156
26.1454,6156.6199
26.1624,6156.3242
26.1794,6156.0284
26.1964,6155.7327
26.2134,6155.437
26.2304,6155.1412
26.2474,6154.8455
26.2644,6154.5498
26.2814,6154.254
26.2984,6153.9583
26.3154,6153.6626
26.3324,6153.3668
26.3494,6153.0711
26.3664,6152.7754
26.3834,6152.4796
26.4004,6152.0047
26.4174,6151.5298
26.4344,6151.0549
26.4514,6150.58
26.4684,6150.1051
26.4854,6149.6302
26.5024,6149.1553
26.5194,6148.6804
26.5364,6148.2055
26.5534,6147.7305
26.5704,6147.2556
26.5874,6146.7807
26.6044,6146.3058
26.6214,6145.8309
26.6384,6145.356
26.6554,6144.7078
26.6724,6144.0597
26.6894,6143.4115
26.7064,6142.7634
26.7234,6142.1152
26.7404,6141.467
26.7574,6140.8189
26.7744,6140.1707
26.7914,6139.5226
26.8084,6138.8744
26.8254,6138.2263
26.8424,6137.5781
26.8594,6136.9299
26.8764,6136.2818
26.8934,6135.6336
26.9104,6134.8192
26.9274,6134.0049
26.9444,6133.1905
26.9614,6132.3761
26.9784,6131.5617
26.9954,6130.7473
27.0124,6129.9329
27.0294,6129.1185
27.0464,6128.3041
27.0634,6127.4897
27.0804,6126.6753
27.0974,6125.861
27.1144,6125.0466
27.1314,6124.2322
27.1484,6123.4178
27.1654,6122.444
27.1824,6121.4703
27.1994,6120.4965
27.2164,6119.5227
27.2334,6118.5489
27.2504,6117.5752
27.2674,6116.6014
27.2844,6115.6276
27.3014,6114.6539
27.3184,6113.6801
27.3354,6112.7063
27.3524,6111.7326
27.3694,6110.7588
27.3864,6109.785
27.4034,6108.8113
27.4204,6107.8375
27.4374,6106.8637
27.4544,6105.89
27.4714,6104.9162
27.4884,6103.9424
27.5054,6102.9686
27.5224,6101.9949
27.5394,6101.0211
27.5564,6100.0473
27.5734,6099.0736
27.5904,6098.0998
27.6074,6097.126
27.6244,6096.1523
27.6414,6095.1785
27.6584,6094.2047
27.6754,6093.0716
27.6924,6091.9384
27.7094,6090.8053
27.7264,6089.6721
27.7434,6088.539
27.7604,6087.4058
27.7774,6086.2727
27.7944,6085.1395
27.8114,6084.0064
27.8284,6082.8733
27.8454,6081.7401
27.8624,6080.607
27.8794,6079.4738
27.8964,6078.3407
27.9134,6077.2075
27.9304,6075.9218
27.9474,6074.6362
27.9644,6073.3505
27.9814,6072.0648
27.9984,6070.7791
28.0154,6069.4935
28.0324,6068.2078
28.0494,6066.9221
28.0664,6065.6364
28.0834,6064.3508
28.1004,6063.0651
28.1174,6061.7794
28.1344,6060.4938
28.1514,6059.2081
28.1684,6057.9224
28.1854,6056.4909
28.2024,6055.0594
28.2194,6053.6279
28.2364,6052.1964
28.2534,6050.7649
28.2704,6049.3333
28.2874,6047.9018
28.3044,6046.4703
28.3214,6045.0388
28.3384,6043.6073
28.3554,6042.1758
28.3724,6040.7443
28.3894,6039.3128
28.4064,6037.8813
28.4234,6036.4498
28.4404,6034.8777
28.4574,6033.3056
28.4744,6031.7335
28.4914,6030.1615
28.5084,6028.5894
28.5254,6027.0173
28.5424,6025.4453
28.5594,6023.8732
28.5764,6022.3011
28.5934,6020.7291
28.6104,6019.157
28.6274,6017.5849
28.6444,6016.0129
28.6614,6014.4408
28.6784,6012.8687
28.6954,6011.1596
28.7124,6009.4506
28.7294,6007.7415
28.7464,6006.0324
28.7634,6004.3233
28.7804,6002.6142
28.7974,6000.9052
28.8144,5999.1961
28.8314,5997.487
28.8484,5995.7779
28.8654,5994.0688
28.8824,5992.3598
28.8994,5990.6507
28.9164,5988.9416
28.9334,5987.2325
28.9504,5985.3879
28.9674,5983.5432
28.9844,5981.6986
29.0014,5979.854
29.0184,5978.0093
29.0354,5976.1647
29.0524,5974.3201
29.0694,5972.4754
29.0864,5970.6308
29.1034,5968.7861
29.1204,5966.9415
29.1374,5965.0969
29.1544,5963.2522
29.1714,5961.4076
29.1884,5959.563
29.2054,5957.5508
29.2224,5955.5386
29.2394,5953.5264
29.2564,5951.5142
29.2734,5949.502
29.2904,5947.4898
29.3074,5945.4776
29.3244,5943.4654
29.3414,5941.4532
29.3584,5939.441
29.3754,5937.4288
29.3924,5935.4166
29.4094,5933.4044
29.4264,5931.3922
29.4434,5929.38
29.4604,5928.0673
29.4774,5926.7545
29.4944,5925.4417
29.5114,5924.129
29.5284,5922.8162
29.5454,5921.5035
29.5624,5920.1907
29.5794,5918.878
29.5964,5917.5652
29.6134,5916.2525
29.6304,5914.9397
29.6474,5913.627
29.6644,5912.3142
29.6814,5911.0015
29.6984,5909.6887
29.7154,5908.2434
29.7324,5906.798
29.7494,5905.3527
29.7664,5903.9073
29.7834,5902.462
29.8004,5901.0166
29.8174,5899.5713
29.8344,5898.1259
29.8514,5896.6806
29.8684,5895.2352
29.8854,5893.7899
29.9024,5892.3445
29.9194,5890.8992
29.9364,5889.4538
29.9534,5888.0085
29.9704,5886.5632
29.9874,5885.1178
30.0044,5883.6725
30.0214,5882.2271
30.0384,5880.7818
30.0554,5879.3364
30.0724,5877.8911
30.0894,5876.4457
30.1064,5875.0004
30.1234,5873.555
30.1404,5872.1097
30.1574,5870.6643
30.1744,5869.219
30.1914,5867.7736
30.2084,5866.3283
30.2254,5864.7503
30.2424,5863.1724
30.2594,5861.5945
30.2764,5860.0165
30.2934,5858.4386
30.3104,5856.8606
30.3274,5855.2827
30.3444,5853.7048
30.3614,5852.1268
30.3784,5850.5489
30.3954,5848.9709
30.4124,5847.393
30.4294,5845.815
30.4464,5844.2371
30.4634,5842.6592
30.4804,5840.9173
30.4974,5839.1755
30.5144,5837.4336
30.5314,5835.6918
30.5484,5833.95
30.5654,5832.2081
30.5824,5830.4663
30.5994,5828.7244
30.6164,5826.9826
30.6334,5825.2408
30.6504,5823.4989
30.6674,5821.7571
30.6844,5820.0152
30.7014,5818.2734
30.7184,5816.5316
30.7354,5816.6754
30.7524,5816.8193
30.7694,5816.9631
30.7864,5817.107
30.8034,5817.2508
30.8204,5817.3947
30.8374,5817.5386
30.8544,5817.6824
30.8714,5817.8263
30.8884,5817.9701
30.9054,5818.114
30.9224,5818.2579
30.9394,5818.4017
30.9564,5818.5456
30.9734,5818.6894
30.9904,5818.7292
31.0074,5818.7689
31.0244,5818.8087
31.0414,5818.8485
31.0584,5818.8882
31.0754,5818.928
31.0924,5818.9677
31.1094,5819.0075
31.1264,5819.0473
31.1434,5819.087
31.1604,5819.1268
31.1774,5819.1665
31.1944,5819.2063
31.2114,5819.2461
31.2284,5819.2858
31.2454,5819.2014
31.2624,5819.1169
31.2794,5819.0324
31.2964,5818.948
31.3134,5818.8635
31.3304,5818.7791
31.3474,5818.6946
31.3644,5818.6102
31.3814,5818.5257
31.3984,5818.4412
31.4154,5818.3568
31.4324,5818.2723
31.4494,5818.1879
31.4664,5818.1034
31.4834,5818.019
31.5004,5817.9345
31.5174,5817.85
31.5344,5817.7656
31.5514,5817.6811
31.5684,5817.5967
31.5854,5817.5122
31.6024,5817.4278
31.6194,5817.3433
31.6364,5817.2588
31.6534,5817.1744
31.6704,5817.0899
31.6874,5817.0055
31.7044,5816.921
31.7214,5816.8366
31.7384,5816.7521
31.7554,5816.4749
31.7724,5816.1976
31.7894,5815.9204
31.8064,5815.6431
31.8234,5815.3659
31.8404,5815.0886
31.8574,5814.8113
31.8744,5814.5341
31.8914,5814.2568
31.9084,5813.9796
31.9254,5813.7023
31.9424,5813.4251
31.9594,5813.1478
31.9764,5812.8706
31.9934,5812.5933
32.0104,5812.1798
32.0274,5811.7663
32.0444,5811.3528
32.0614,5810.9393
32.0784,5810.5258
32.0954,5810.1122
32.1124,5809.6987
32.1294,5809.2852
32.1464,5808.8717
32.1634,5808.4582
32.1804,5808.0447
32.1974,5807.6312
32.2144,5807.2176
32.2314,5806.8041
32.2484,5806.3906
32.2654,5805.9771
32.2824,5805.5636
32.2994,5805.1501
32.3164,5804.7366
32.3334,5804.323
32.3504,5803.9095
32.3674,5803.496
32.3844,5803.0825
32.4014,5802.669
32.4184,5802.2555
32.4354,5801.8419
32.4524,5801.4284
32.4694,5801.0149
32.4864,5800.6014
32.5034,5800.1879
32.5204,5800.5697
32.5374,5800.9516
32.5544,5801.3334
32.5714,5801.7152
32.5884,5802.0971
32.6054,5802.4789
32.6224,5802.8608
32.6394,5803.2426
32.6564,5803.6244
32.6734,5804.0063
32.6904,5804.3881
32.7074,5804.7699
32.7244,5805.1518
32.7414,5805.5336
32.7584,5805.9155
32.7754,5806.1447
32.7924,5806.3739
32.8094,5806.6031
32.8264,5806.8323
32.8434,5807.0615
32.8604,5807.2908
32.8774,5807.52
32.8944,5807.7492
32.9114,5807.9784
32.9284,5808.2076
32.9454,5808.4369
32.9624,5808.6661
32.9794,5808.8953
32.9964,5809.1245
33.0134,5809.3537
33.0304,5809.4256
33.0474,5809.4975
33.0644,5809.5694
33.0814,5809.6413
33.0984,5809.7132
33.1154,5809.785
33.1324,5809.8569
33.1494,5809.9288
33.1664,5810.0007
33.1834,5810.0726
33.2004,5810.1445
33.2174,5810.2163
33.2344,5810.2882
33.2514,5810.3601
33.2684,5810.432
33.2854,5810.3417
33.3024,5810.2514
33.3194,5810.1611
33.3364,5810.0708
33.3534,5809.9805
33.3704,5809.8902
33.3874,5809.7999
33.4044,5809.7096
33.4214,5809.6193
33.4384,5809.529
33.4554,5809.4387
33.4724,5809.3484
33.4894,5809.2581
33.5064,5809.1678
33.5234,5809.0775
33.5404,5808.8224
33.5574,5808.5673
33.5744,5808.3122
33.5914,5808.0571
33.6084,5807.802
33.6254,5807.5469
33.6424,5807.2918
33.6594,5807.0367
33.6764,5806.7816
33.6934,5806.5265
33.7104,5806.2714
33.7274,5806.0163
33.7444,5805.7612
33.7614,5805.5061
33.7784,5805.251
33.7954,5804.996
33.8124,5804.7409
33.8294,5804.4858
33.8464,5804.2307
33.8634,5803.9756
33.8804,5803.7205
33.8974,5803.4654
33.9144,5803.2103
33.9314,5802.9552
33.9484,5802.7001
33.9654,5802.445
33.9824,5802.1899
33.9994,5801.9348
34.0164,5801.6797
34.0334,5801.4246
34.0504,5801.0047
34.0674,5800.5848
34.0844,5800.1649
34.1014,5799.745
34.1184,5799.3251
34.1354,5798.9052
34.1524,5798.4853
34.1694,5798.0655
34.1864,5797.6456
34.2034,5797.2257
34.2204,5796.8058
34.2374,5796.3859
34.2544,5795.966
34.2714,5795.5461
34.2884,5795.1262
34.3054,5794.5389
34.3224,5793.9516
34.3394,5793.3643
34.3564,5792.777
34.3734,5792.1897
34.3904,5791.6024
34.4074,5791.0151
34.4244,5790.4278
34.4414,5789.8405
34.4584,5789.2532
34.4754,5788.6659
34.4924,5788.0786
34.5094,5787.4913
34.5264,5786.904
34.5434,5786.3166
34.5604,5785.5616
34.5774,5784.8065
34.5944,5784.0514
34.6114,5783.2963
34.6284,5782.5412
34.6454,5781.7861
34.6624,5781.031
34.6794,5780.2759
34.6964,5779.5208
34.7134,5778.7658
34.7304,5778.0107
34.7474,5777.2556
34.7644,5776.5005
34.7814,5775.7454
34.7984,5774.9903
34.8154,5774.0717
34.8324,5773.153
34.8494,5772.2344
34.8664,5771.3157
34.8834,5770.3971
34.9004,5769.4785
34.9174,5768.5598
34.9344,5767.6412
34.9514,5766.7225
34.9684,5765.8039
34.9854,5764.8853
35.0024,5763.9666
35.0194,5763.048
35.0364,5762.1293
35.0534,5761.2107
35.0704,5760.1364
35.0874,5759.0622
35.1044,5757.9879
35.1214,5756.9137
35.1384,5755.8394
35.1554,5754.7652
35.1724,5753.6909
35.1894,5752.6167
35.2064,5751.5424
35.2234,5750.4682
35.2404,5749.3939
35.2574,5748.3197
35.2744,5747.2454
35.2914,5746.1712
35.3084,5745.0969
35.3254,5744.5879
35.3424,5744.079
35.3594,5743.57
35.3764,5743.061
35.3934,5742.552
35.4104,5742.0431
35.4274,5741.5341
35.4444,5741.0251
35.4614,5740.5161
35.4784,5740.0072
35.4954,5739.4982
35.5124,5738.9892
35.5294,5738.4802
35.5464,5737.9712
35.5634,5737.4623
35.5804,5736.777
35.5974,5736.0917
35.6144,5735.4065
35.6314,5734.7212
35.6484,5734.0359
35.6654,5733.3507
35.6824,5732.6654
35.6994,5731.9802
35.7164,5731.2949
35.7334,5730.6096
35.7504,5729.9244
35.7674,5729.2391
35.7844,5728.5538
35.8014,5727.8686
35.8184,5727.1833
35.8354,5726.498
35.8524,5725.8128
35.8694,5725.1275
35.8864,5724.4422
35.9034,5723.757
35.9204,5723.0717
35.9374,5722.3865
35.9544,5721.7012
35.9714,5721.0159
35.9884,5720.3307
36.0054,5719.6454
36.0224,5718.9601
36.0394,5718.2749
36.0564,5717.5896
36.0734,5716.9043
36.0904,5716.5167
36.1074,5716.129
36.1244,5715.7414
36.1414,5715.3537
36.1584,5714.966
36.1754,5714.5784
36.1924,5714.1907
36.2094,5713.8031
36.2264,5713.4154
36.2434,5713.0277
36.2604,5712.6401
36.2774,5712.2524
36.2944,5711.8648
36.3114,5711.4771
36.3284,5711.0894
36.3454,5710.7018
36.3624,5710.3141
36.3794,5709.9265
36.3964,5709.5388
36.4134,5709.1511
36.4304,5708.7635
36.4474,5708.3758
36.4644,5707.9882
36.4814,5707.6005
36.4984,5707.2128
36.5154,5706.8252
36.5324,5706.4375
36.5494,5706.0499
36.5664,5705.6622
36.5834,5705.2746
36.6004,5704.8271
36.6174,5704.3797
36.6344,5703.9323
36.6514,5703.4849
36.6684,5703.0374
36.6854,5702.59
36.7024,5702.1426
36.7194,5701.6952
36.7364,5701.2478
36.7534,5700.8003
36.7704,5700.3529
36.7874,5699.9055
36.8044,5699.4581
36.8214,5699.0107
36.8384,5698.5632
36.8554,5698.1158
36.8724,5697.6684
36.8894,5697.221
36.9064,5696.7736
36.9234,5696.3261
36.9404,5695.8787
36.9574,5695.4313
36.9744,5694.9839
36.9914,5694.5365
37.0084,5694.089
37.0254,5693.6416
37.0424,5693.1942
37.0594,5692.7468
37.0764,5692.2994
37.0934,5691.8519
37.1104,5691.2366
37.1274,5690.6213
37.1444,5690.0059
37.1614,5689.3906
37.1784,5688.7753
37.1954,5688.16
37.2124,5687.5446
37.2294,5686.9293
37.2464,5686.314
37.2634,5685.6986
37.2804,5685.0833
37.2974,5684.468
37.3144,5683.8526
37.3314,5683.2373
37.3484,5682.622
37.3654,5683.4425
37.3824,5684.2629
37.3994,5685.0834
37.4164,5685.9039
37.4334,5686.7244
37.4504,5687.5448
37.4674,5688.3653
37.4844,5689.1858
37.5014,5690.0063
37.5184,5690.8267
37.5354,5691.6472
37.5524,5692.4677
37.5694,5693.2881
37.5864,5694.1086
37.6034,5694.9291
37.6204,5695.5927
37.6374,5696.2563
37.6544,5696.9199
37.6714,5697.5834
37.6884,5698.247
37.7054,5698.9106
37.7224,5699.5742
37.7394,5700.2378
37.7564,5700.9014
37.7734,5701.565
37.7904,5702.2286
37.8074,5702.8921
37.8244,5703.5557
37.8414,5704.2193
37.8584,5704.8829
37.8754,5705.3794
37.8924,5705.8759
37.9094,5706.3723
37.9264,5706.8688
37.9434,5707.3653
37.9604,5707.8617
37.9774,5708.3582
37.9944,5708.8547
38.0114,5709.3512
38.0284,5709.8476
38.0454,5710.3441
38.0624,5710.8406
38.0794,5711.337
38.0964,5711.8335
38.1134,5712.33
38.1304,5712.6503
38.1474,5712.9705
38.1644,5713.2908
38.1814,5713.6111
38.1984,5713.9313
38.2154,5714.2516
38.2324,5714.5719
38.2494,5714.8922
38.2664,5715.2124
38.2834,5715.5327
38.3004,5715.853
38.3174,5716.1733
38.3344,5716.4935
38.3514,5716.8138
38.3684,5717.1341
38.3854,5717.2746
38.4024,5717.4152
38.4194,5717.5558
38.4364,5717.6963
38.4534,5717.8369
38.4704,5717.9775
38.4874,5718.118
38.5044,5718.2586
38.5214,5718.3992
38.5384,5718.5397
38.5554,5718.6803
38.5724,5718.8209
38.5894,5718.9614
38.6064,5719.102
38.6234,5719.2426
38.6404,5719.3831
38.6574,5719.5237
38.6744,5719.6642
38.6914,5719.8048
38.7084,5719.9454
38.7254,5720.0859
38.7424,5720.2265
38.7594,5720.3671
38.7764,5720.5076
38.7934,5720.6482
38.8104,5720.7888
38.8274,5720.9293
38.8444,5721.0699
38.8614,5721.2105
38.8784,5721.351
38.8954,5721.3119
38.9124,5721.2727
38.9294,5721.2336
38.9464,5721.1944
38.9634,5721.1553
38.9804,5721.1162
38.9974,5721.077
39.0144,5721.0379
39.0314,5720.9987
39.0484,5720.9596
39.0654,5720.9204
39.0824,5720.8813
39.0994,5720.8421
39.1164,5720.803
39.1334,5720.7639
39.1504,5720.5415
39.1674,5720.3191
39.1844,5720.0968
39.2014,5719.8744
39.2184,5719.652
39.2354,5719.4297
39.2524,5719.2073
39.2694,5718.9849
39.2864,5718.7626
39.3034,5718.5402
39.3204,5718.3178
39.3374,5718.0955
39.3544,5717.8731
39.3714,5717.6507
39.3884,5717.4284
39.4054,5717.0249
39.4224,5716.6213
39.4394,5716.2178
39.4564,5715.8143
39.4734,5715.4107
39.4904,5715.0072
39.5074,5714.6037
39.5244,5714.2002
39.5414,5713.7966
39.5584,5713.3931
39.5754,5712.9896
39.5924,5712.5861
39.6094,5712.1825
39.6264,5711.779
39.6434,5711.3755
39.6604,5710.8028
39.6774,5710.2302
39.6944,5709.6575
39.7114,5709.0849
39.7284,5708.5123
39.7454,5707.9396
39.7624,5707.367
39.7794,5706.7943
39.7964,5706.2217
39.8134,5705.6491
39.8304,5705.0764
39.8474,5704.5038
39.8644,5703.9311
39.8814,5703.3585
39.8984,5702.7858
39.9154,5702.0659
39.9324,5701.346
39.9494,5700.626
39.9664,5699.9061
39.9834,5699.1861
40.0004,5698.4662
40.0174,5697.7462
40.0344,5697.0263
40.0514,5696.3063
40.0684,5695.5864
40.0854,5694.8664
40.1024,5694.1465
40.1194,5693.4265
40.1364,5692.7066
40.1534,5691.9867
40.1704,5691.4176
40.1874,5690.8485
40.2044,5690.2794
40.2214,5689.7104
40.2384,5689.1413
40.2554,5688.5722
40.2724,5688.0031
40.2894,5687.4341
40.3064,5686.865
40.3234,5686.2959
40.3404,5685.7269
40.3574,5685.1578
40.3744,5684.5887
40.3914,5684.0196
40.4084,5683.4506
40.4254,5682.7633
40.4424,5682.076
40.4594,5681.3888
40.4764,5680.7015
40.4934,5680.0142
40.5104,5679.3269
40.5274,5678.6397
40.5444,5677.9524
40.5614,5677.2651
40.5784,5676.5779
40.5954,5675.8906
40.6124,5675.2033
40.6294,5674.5161
40.6464,5673.8288
40.6634,5673.1415
40.6804,5672.4542
40.6974,5671.767
40.7144,5671.0797
40.7314,5670.3924
40.7484,5669.7052
40.7654,5669.0179
40.7824,5668.3306
40.7994,5667.6433
40.8164,5666.9561
40.8334,5666.2688
40.8504,5665.5815
40.8674,5664.8943
40.8844,5664.207
40.9014,5663.5197
40.9184,5662.8325
40.9354,5662.027
40.9524,5661.2215
40.9694,5660.4161
40.9864,5659.6106
41.0034,5658.8051
41.0204,5657.9996
41.0374,5657.1942
41.0544,5656.3887
41.0714,5655.5832
41.0884,5654.7778
41.1054,5653.9723
41.1224,5653.1668
41.1394,5652.3614
41.1564,5651.5559
41.1734,5650.7504
41.1904,5651.1651
41.2074,5651.5797
41.2244,5651.9944
41.2414,5652.409
41.2584,5652.8236
41.2754,5653.2383
41.2924,5653.6529
41.3094,5654.0676
41.3264,5654.4822
41.3434,5654.8968
41.3604,5655.3115
41.3774,5655.7261
41.3944,5656.1408
41.4114,5656.5554
41.4284,5656.9701
41.4454,5657.2753
41.4624,5657.5805
41.4794,5657.8858
41.4964,5658.191
41.5134,5658.4963
41.5304,5658.8015
41.5474,5659.1067
41.5644,5659.412
41.5814,5659.7172
41.5984,5660.0225
41.6154,5660.3277
41.6324,5660.6329
41.6494,5660.9382
41.6664,5661.2434
41.6834,5661.5487
41.7004,5661.7459
41.7174,5661.9432
41.7344,5662.1405
41.7514,5662.3378
41.7684,5662.5351
41.7854,5662.7324
41.8024,5662.9297
41.8194,5663.1269
41.8364,5663.3242
41.8534,5663.5215
41.8704,5663.7188
41.8874,5663.9161
41.9044,5664.1134
41.9214,5664.3107
41.9384,5664.5079
41.9554,5664.579
41.9724,5664.6501
41.9894,5664.7211
42.0064,5664.7922
42.0234,5664.8633
42.0404,5664.9343
42.0574,5665.0054
42.0744,5665.0765
42.0914,5665.1475
42.1084,5665.2186
42.1254,5665.2897
42.1424,5665.3607
42.1594,5665.4318
42.1764,5665.5029
42.1934,5665.5739
42.2104,5665.4944
42.2274,5665.415
42.2444,5665.3355
42.2614,5665.256
42.2784,5665.1765
42.2954,5665.097
42.3124,5665.0175
42.3294,5664.938
42.3464,5664.8585
42.3634,5664.779
42.3804,5664.6995
42.3974,5664.62
42.4144,5664.5405
42.4314,5664.461
42.4484,5664.3815
42.4654,5664.1367
42.4824,5663.8919
42.4994,5663.6471
42.5164,5663.4023
42.5334,5663.1576
42.5504,5662.9128
42.5674,5662.668
42.5844,5662.4232
42.6014,5662.1784
42.6184,5661.9336
42.6354,5661.6888
42.6524,5661.444
42.6694,5661.1992
42.6864,5660.9544
42.7034,5660.7096
42.7204,5660.4648
42.7374,5660.2201
42.7544,5659.9753
42.7714,5659.7305
42.7884,5659.4857
42.8054,5659.2409
42.8224,5658.9961
42.8394,5658.7513
42.8564,5658.5065
42.8734,5658.2617
42.8904,5658.0169
42.9074,5657.7721
42.9244,5657.5273
42.9414,5657.2826
42.9584,5657.0378
42.9754,5656.6277
42.9924,5656.2176
43.0094,5655.8075
43.0264,5655.3974
43.0434,5654.9873
43.0604,5654.5772
43.0774,5654.1671
43.0944,5653.7571
43.1114,5653.347
43.1284,5652.9369
43.1454,5652.5268
43.1624,5652.1167
43.1794,5651.7066
43.1964,5651.2965
43.2134,5650.8864
43.2304,5650.2963
43.2474,5649.7062
43.2644,5649.1161
43.2814,5648.526
43.2984,5647.9358
43.3154,5647.3457
43.3324,5646.7556
43.3494,5646.1655
43.3664,5645.5754
43.3834,5644.9852
43.4004,5644.3951
43.4174,5643.805
43.4344,5643.2149
43.4514,5642.6248
43.4684,5642.0346
43.4854,5641.2594
43.5024,5640.4841
43.5194,5639.7088
43.5364,5638.9335
43.5534,5638.1583
43.5704,5637.383
43.5874,5636.6077
43.6044,5635.8324
43.6214,5635.0571
43.6384,5634.2819
43.6554,5633.5066
43.6724,5632.7313
43.6894,5631.956
43.7064,5631.1808
43.7234,5630.4055
43.7404,5629.4652
43.7574,5628.5249
43.7744,5627.5847
43.7914,5626.6444
43.8084,5625.7041
43.8254,5624.7639
43.8424,5623.8236
43.8594,5622.8833
43.8764,5621.9431
43.8934,5621.0028
43.9104,5620.0625
43.9274,5619.1222
43.9444,5618.182
43.9614,5617.2417
43.9784,5616.3014
43.9954,5616.3378
44.0124,5616.3742
44.0294,5616.4106
44.0464,5616.447
44.0634,5616.4833
44.0804,5616.5197
44.0974,5616.5561
44.1144,5616.5925
44.1314,5616.6289
44.1484,5616.6652
44.1654,5616.7016
44.1824,5616.738
44.1994,5616.7744
44.2164,5616.8108
44.2334,5616.8471
44.2504,5616.7824
44.2674,5616.7177
44.2844,5616.653
44.3014,5616.5883
44.3184,5616.5236
44.3354,5616.4589
44.3524,5616.3941
44.3694,5616.3294
44.3864,5616.2647
44.4034,5616.2
44.4204,5616.1353
44.4374,5616.0706
44.4544,5616.0059
44.4714,5615.9411
44.4884,5615.8764
44.5054,5615.8117
44.5224,5615.747
44.5394,5615.6823
44.5564,5615.6176
44.5734,5615.5529
44.5904,5615.4882
44.6074,5615.4234
44.6244,5615.3587
44.6414,5615.294
44.6584,5615.2293
44.6754,5615.1646
44.6924,5615.0999
44.7094,5615.0352
44.7264,5614.9704
44.7434,5614.9057
44.7604,5614.7399
44.7774,5614.5741
44.7944,5614.4083
44.8114,5614.2425
44.8284,5614.0767
44.8454,5613.9109
44.8624,5613.7451
44.8794,5613.5793
44.8964,5613.4135
44.9134,5613.2477
44.9304,5613.0818
44.9474,5612.916
44.9644,5612.7502
44.9814,5612.5844
44.9984,5612.4186
45.0154,5612.1663
45.0324,5611.9139
45.0494,5611.6616
45.0664,5611.4093
45.0834,5611.1569
45.1004,5610.9046
45.1174,5610.6523
45.1344,5610.3999
45.1514,5610.1476
45.1684,5609.8953
45.1854,5609.6429
45.2024,5609.3906
45.2194,5609.1382
45.2364,5608.8859
45.2534,5608.6336
45.2704,5608.3812
45.2874,5608.1289
45.3044,5607.8766
45.3214,5607.6242
45.3384,5607.3719
45.3554,5607.1196
45.3724,5606.8672
45.3894,5606.6149
45.4064,5606.3625
45.4234,5606.1102
45.4404,5605.8579
45.4574,5605.6055
45.4744,5605.3532
45.4914,5605.1009
45.5084,5604.8485
45.5254,5605.7351
45.5424,5606.6216
45.5594,5607.5082
45.5764,5608.3947
45.5934,5609.2813
45.6104,5610.1678
45.6274,5611.0543
45.6444,5611.9409
45.6614,5612.8274
45.6784,5613.714
45.6954,5614.6005
45.7124,5615.4871
45.7294,5616.3736
45.7464,5617.2602
45.7634,5618.1467
45.7804,5618.8658
45.7974,5619.5849
45.8144,5620.304
45.8314,5621.023
45.8484,5621.7421
45.8654,5622.4612
45.8824,5623.1803
45.8994,5623.8994
45.9164,5624.6185
45.9334,5625.3376
45.9504,5626.0567
45.9674,5626.7757
45.9844,5627.4948
46.0014,5628.2139
46.0184,5628.933
46.0354,5629.4633
46.0524,5629.9936
46.0694,5630.524
46.0864,5631.0543
46.1034,5631.5846
46.1204,5632.1149
46.1374,5632.6452
46.1544,5633.1755
46.1714,5633.7059
46.1884,5634.2362
46.2054,5634.7665
46.2224,5635.2968
46.2394,5635.8271
46.2564,5636.3575
46.2734,5636.8878
46.2904,5637.2712
46.3074,5637.6546
46.3244,5638.038
46.3414,5638.4214
46.3584,5638.8049
46.3754,5639.1883
46.3924,5639.5717
46.4094,5639.9551
46.4264,5640.3385
46.4434,5640.7219
46.4604,5641.1054
46.4774,5641.4888
46.4944,5641.8722
46.5114,5642.2556
46.5284,5642.639
46.5454,5642.8757
46.5624,5643.1125
46.5794,5643.3492
46.5964,5643.5859
46.6134,5643.8227
46.6304,5644.0594
46.6474,5644.2961
46.6644,5644.5329
46.6814,5644.7696
46.6984,5645.0063
46.7154,5645.2431
46.7324,5645.4798
46.7494,5645.7165
46.7664,5645.9533
46.7834,5646.19
46.8004,5646.2923
46.8174,5646.3945
46.8344,5646.4968
46.8514,5646.5991
46.8684,5646.7013
46.8854,5646.8036
46.9024,5646.9058
46.9194,5647.0081
46.9364,5647.1104
46.9534,5647.2126
46.9704,5647.3149
46.9874,5647.4172
47.0044,5647.5194
47.0214,5647.6217
47.0384,5647.7239
47.0554,5647.6887
47.0724,5647.6535
47.0894,5647.6183
47.1064,5647.5831
47.1234,5647.5479
47.1404,5647.5127
47.1574,5647.4774
47.1744,5647.4422
47.1914,5647.407
47.2084,5647.3718
47.2254,5647.3366
47.2424,5647.3014
47.2594,5647.2661
47.2764,5647.2309
47.2934,5647.1957
47.3104,5647.0162
47.3274,5646.8367
47.3444,5646.6571
47.3614,5646.4776
47.3784,5646.2981
47.3954,5646.1186
47.4124,5645.9391
47.4294,5645.7595
47.4464,5645.58
47.4634,5645.4005
47.4804,5645.221
47.4974,5645.0415
47.5144,5644.8619
47.5314,5644.6824
47.5484,5644.5029
47.5654,5644.3234
47.5824,5644.1439
47.5994,5643.9643
47.6164,5643.7848
47.6334,5643.6053
47.6504,5643.4258
47.6674,5643.2462
47.6844,5643.0667
47.7014,5642.8872
47.7184,5642.7077
47.7354,5642.5282
47.7524,5642.3486
47.7694,5642.1691
47.7864,5641.9896
47.8034,5641.8101
47.8204,5641.4862
47.8374,5641.1624
47.8544,5640.8386
47.8714,5640.5148
47.8884,5640.1909
47.9054,5639.8671
47.9224,5639.5433
47.9394,5639.2195
47.9564,5638.8956
47.9734,5638.5718
47.9904,5638.248
48.0074,5637.9242
48.0244,5637.6003
48.0414,5637.2765
48.0584,5636.9527
48.0754,5636.4777
48.0924,5636.0028
48.1094,5635.5278
48.1264,5635.0528
48.1434,5634.5779
48.1604,5634.1029
48.1774,5633.628
48.1944,5633.153
48.2114,5632.678
48.2284,5632.2031
48.2454,5631.7281
48.2624,5631.2532
48.2794,5630.7782
48.2964,5630.3032
48.3134,5629.8283
48.3304,5629.1916
48.3474,5628.5548
48.3644,5627.9181
48.3814,5627.2814
48.3984,5626.6446
48.4154,5626.0079
48.4324,5625.3711
48.4494,5624.7344
48.4664,5624.0977
48.4834,5623.4609
48.5004,5622.8242
48.5174,5622.1875
48.5344,5621.5507
48.5514,5620.914
48.5684,5620.2773
48.5854,5619.4757
48.6024,5618.6742
48.6194,5617.8726
48.6364,5617.071
48.6534,5616.2695
48.6704,5615.4679
48.6874,5614.6664
48.7044,5613.8648
48.7214,5613.0632
48.7384,5612.2617
48.7554,5611.4601
48.7724,5610.6586
48.7894,5609.857
48.8064,5609.0554
48.8234,5608.2539
48.8404,5608.4138
48.8574,5608.5738
48.8744,5608.7338
48.8914,5608.8937
48.9084,5609.0537
48.9254,5609.2136
48.9424,5609.3736
48.9594,5609.5336
48.9764,5609.6935
48.9934,5609.8535
49.0104,5610.0135
49.0274,5610.1734
49.0444,5610.3334
49.0614,5610.4933
49.0784,5610.6533
49.0954,5611.472
49.1124,5612.2906
49.1294,5613.1093
49.1464,5613.928
49.1634,5614.7466
49.1804,5615.5653
49.1974,5616.384
49.2144,5617.2026
49.2314,5618.0213
49.2484,5618.84
49.2654,5619.6586
49.2824,5620.4773
49.2994,5621.296
49.3164,5622.1146
49.3334,5622.9333
49.3504,5623.7519
49.3674,5624.5706
49.3844,5625.3893
49.4014,5626.2079
49.4184,5627.0266
49.4354,5627.8453
49.4524,5628.6639
49.4694,5629.4826
49.4864,5630.3013
49.5034,5631.1199
49.5204,5631.9386
49.5374,5632.7573
49.5544,5633.5759
49.5714,5634.3946
49.5884,5635.2133
49.6054,5635.9174
49.6224,5636.6215
49.6394,5637.3256
49.6564,5638.0297
49.6734,5638.7339
49.6904,5639.438
49.7074,5640.1421
49.7244,5640.8462
49.7414,5641.5504
49.7584,5642.2545
49.7754,5642.9586
49.7924,5643.6627
49.8094,5644.3668
49.8264,5645.071
49.8434,5645.7751
49.8604,5646.7953
49.8774,5647.8156
49.8944,5648.8358
49.9114,5649.8561
49.9284,5650.8763
49.9454,5651.8966
49.9624,5652.9168
49.9794,5653.9371
49.9964,5654.9574
50.0134,5655.9776
50.0304,5656.9979
50.0474,5658.0181
50.0644,5659.0384
50.0814,5660.0586
50.0984,5661.0789
50.1154,5661.9542
50.1324,5662.8295
50.1494,5663.7048
50.1664,5664.58
50.1834,5665.4553
50.2004,5666.3306
50.2174,5667.2059
50.2344,5668.0812
50.2514,5668.9565
50.2684,5669.8318
50.2854,5670.7071
50.3024,5671.5824
50.3194,5672.4577
50.3364,5673.333
50.3534,5674.2083
50.3704,5674.9432
50.3874,5675.6782
50.4044,5676.4131
50.4214,5677.148
50.4384,5677.883
50.4554,5678.6179
50.4724,5679.3529
50.4894,5680.0878
50.5064,5680.8227
50.5234,5681.5577
50.5404,5682.2926
50.5574,5683.0275
50.5744,5683.7625
50.5914,5684.4974
50.6084,5685.2323
50.6254,5685.8266
50.6424,5686.4208
50.6594,5687.015
50.6764,5687.6093
50.6934,5688.2035
50.7104,5688.7977
50.7274,5689.392
50.7444,5689.9862
50.7614,5690.5805
50.7784,5691.1747
50.7954,5691.7689
50.8124,5692.3632
50.8294,5692.9574
50.8464,5693.5516
50.8634,5694.1459
50.8804,5694.5951
50.8974,5695.0444
50.9144,5695.4936
50.9314,5695.9429
50.9484,5696.3921
50.9654,5696.8414
50.9824,5697.2906
50.9994,5697.7399
51.0164,5698.1891
51.0334,5698.6384
51.0504,5699.0876
51.0674,5699.5369
51.0844,5699.9861
51.1014,5700.4354
51.1184,5700.8847
51.1354,5701.1823
51.1524,5701.4799
51.1694,5701.7775
51.1864,5702.0751
51.2034,5702.3727
51.2204,5702.6703
51.2374,5702.9679
51.2544,5703.2655
51.2714,5703.5631
51.2884,5703.8607
51.3054,5704.1583
51.3224,5704.4559
51.3394,5704.7535
51.3564,5705.0511
51.3734,5705.3487
51.3904,5705.6463
51.4074,5705.9439
51.4244,5706.2415
51.4414,5706.5391
51.4584,5706.8367
51.4754,5707.1343
51.4924,5707.4319
51.5094,5707.7295
51.5264,5708.0271
51.5434,5708.3247
51.5604,5708.6223
51.5774,5708.9199
51.5944,5709.2175
51.6114,5709.5151
51.6284,5709.8127
51.6454,5709.9586
51.6624,5710.1046
51.6794,5710.2505
51.6964,5710.3964
51.7134,5710.5424
51.7304,5710.6883
51.7474,5710.8343
51.7644,5710.9802
51.7814,5711.1262
51.7984,5711.2721
51.8154,5711.4181
51.8324,5711.564
51.8494,5711.71
51.8664,5711.8559
51.8834,5712.0019
51.9004,5711.9895
51.9174,5711.9771
51.9344,5711.9647
51.9514,5711.9523
51.9684,5711.94
51.9854,5711.9276
52.0024,5711.9152
52.0194,5711.9028
52.0364,5711.8904
52.0534,5711.8781
52.0704,5711.8657
52.0874,5711.8533
52.1044,5711.8409
52.1214,5711.8285
52.1384,5711.8162
52.1554,5711.6364
52.1724,5711.4566
52.1894,5711.2768
52.2064,5711.0971
52.2234,5710.9173
52.2404,5710.7375
52.2574,5710.5577
52.2744,5710.378
52.2914,5710.1982
52.3084,5710.0184
52.3254,5709.8387
52.3424,5709.6589
52.3594,5709.4791
52.3764,5709.2993
52.3934,5709.1196
52.4104,5708.7625
52.4274,5708.4054
52.4444,5708.0483
52.4614,5707.6912
52.4784,5707.3341
52.4954,5706.977
52.5124,5706.6199
52.5294,5706.2628
52.5464,5705.9057
52.5634,5705.5486
52.5804,5705.1915
52.5974,5704.8344
52.6144,5704.4773
52.6314,5704.1202
52.6484,5703.7631
52.6654,5703.2199
52.6824,5702.6768
52.6994,5702.1337
52.7164,5701.5905
52.7334,5701.0474
52.7504,5700.5042
52.7674,5699.9611
52.7844,5699.4179
52.8014,5698.8748
52.8184,5698.3316
52.8354,5697.7885
52.8524,5697.2453
52.8694,5696.7022
52.8864,5696.159
52.9034,5695.6159
52.9204,5694.8813
52.9374,5694.1467
52.9544,5693.4121
52.9714,5692.6776
52.9884,5691.943
53.0054,5691.2084
53.0224,5690.4738
53.0394,5689.7393
53.0564,5689.0047
53.0734,5688.2701
53.0904,5687.5355
53.1074,5686.801
53.1244,5686.0664
53.1414,5685.3318
53.1584,5684.5972
53.1754,5683.6747
53.1924,5682.7522
53.2094,5681.8296
53.2264,5680.9071
53.2434,5679.9846
53.2604,5679.062
53.2774,5678.1395
53.2944,5677.217
53.3114,5676.2944
53.3284,5675.3719
53.3454,5674.4494
53.3624,5673.5268
53.3794,5672.6043
53.3964,5671.6818
53.4134,5670.7593
53.4304,5669.6721
53.4474,5668.5849
53.4644,5667.4977
53.4814,5666.4105
53.4984,5665.3233
53.5154,5664.2361
53.5324,5663.1489
53.5494,5662.0617
53.5664,5660.9745
53.5834,5659.8873
53.6004,5658.8001
53.6174,5657.7129
53.6344,5656.6257
53.6514,5655.5385
53.6684,5654.4513
53.6854,5654.7897
53.7024,5655.1281
53.7194,5655.4665
53.7364,5655.8049
53.7534,5656.1433
53.7704,5656.4817
53.7874,5656.8201
53.8044,5657.1585
53.8214,5657.4969
53.8384,5657.8353
53.8554,5658.1737
53.8724,5658.5121
53.8894,5658.8505
53.9064,5659.1889
53.9234,5659.5273
53.9404,5659.8657
53.9574,5660.2041
53.9744,5660.5425
53.9914,5660.8809
54.0084,5661.2193
54.0254,5661.5577
54.0424,5661.8961
54.0594,5662.2345
54.0764,5662.5729
54.0934,5662.9113
54.1104,5663.2497
54.1274,5663.5881
54.1444,5663.9265
54.1614,5664.2649
54.1784,5664.6033
54.1954,5665.3965
54.2124,5666.1896
54.2294,5666.9828
54.2464,5667.776
54.2634,5668.5692
54.2804,5669.3624
54.2974,5670.1555
54.3144,5670.9487
54.3314,5671.7419
54.3484,5672.5351
54.3654,5673.3283
54.3824,5674.1214
54.3994,5674.9146
54.4164,5675.7078
54.4334,5676.501
54.4504,5677.1469
54.4674,5677.7928
54.4844,5678.4387
54.5014,5679.0846
54.5184,5679.7306
54.5354,5680.3765
54.5524,5681.0224
54.5694,5681.6683
54.5864,5682.3142
54.6034,5682.9601
54.6204,5683.6061
54.6374,5684.252
54.6544,5684.8979
54.6714,5685.5438
54.6884,5686.1897
54.7054,5686.666
54.7224,5687.1422
54.7394,5687.6185
54.7564,5688.0947
54.7734,5688.571
54.7904,5689.0472
54.8074,5689.5234
54.8244,5689.9997
54.8414,5690.4759
54.8584,5690.9522
54.8754,5691.4284
54.8924,5691.9047
54.9094,5692.3809
54.9264,5692.8572
54.9434,5693.3334
54.9604,5693.6229
54.9774,5693.9124
54.9944,5694.2019
55.0114,5694.4914
55.0284,5694.7809
55.0454,5695.0704
55.0624,5695.3599
55.0794,5695.6494
55.0964,5695.9389
55.1134,5696.2284
55.1304,5696.5179
55.1474,5696.8074
55.1644,5697.0969
55.1814,5697.3864
55.1984,5697.6759
55.2154,5697.7812
55.2324,5697.8865
55.2494,5697.9918
55.2664,5698.0971
55.2834,5698.2024
55.3004,5698.3077
55.3174,5698.413
55.3344,5698.5183
55.3514,5698.6236
55.3684,5698.729
55.3854,5698.8343
55.4024,5698.9396
55.4194,5699.0449
55.4364,5699.1502
55.4534,5699.2555
55.4704,5699.1852
55.4874,5699.115
55.5044,5699.0448
55.5214,5698.9745
55.5384,5698.9043
55.5554,5698.8341
55.5724,5698.7639
55.5894,5698.6936
55.6064,5698.6234
55.6234,5698.5532
55.6404,5698.4829
55.6574,5698.4127
55.6744,5698.3425
55.6914,5698.2722
55.7084,5698.202
55.7254,5697.9644
55.7424,5697.7268
55.7594,5697.4891
55.7764,5697.2515
55.7934,5697.0139
55.8104,5696.7763
55.8274,5696.5387
55.8444,5696.301
55.8614,5696.0634
55.8784,5695.8258
55.8954,5695.5882
55.9124,5695.3506
55.9294,5695.1129
55.9464,5694.8753
55.9634,5694.6377
55.9804,5694.4001
55.9974,5694.1624
56.0144,5693.9248
56.0314,5693.6872
56.0484,5693.4496
56.0654,5693.212
56.0824,5692.9743
56.0994,5692.7367
56.1164,5692.4991
56.1334,5692.2615
56.1504,5692.0239
56.1674,5691.7862
56.1844,5691.5486
56.2014,5691.311
56.2184,5691.0734
56.2354,5690.6684
56.2524,5690.2634
56.2694,5689.8583
56.2864,5689.4533
56.3034,5689.0483
56.3204,5688.6433
56.3374,5688.2383
56.3544,5687.8333
56.3714,5687.4283
56.3884,5687.0233
56.4054,5686.6183
56.4224,5686.2132
56.4394,5685.8082
56.4564,5685.4032
56.4734,5684.9982
56.4904,5684.4339
56.5074,5683.8697
56.5244,5683.3054
56.5414,5682.7412
56.5584,5682.1769
56.5754,5681.6127
56.5924,5681.0484
56.6094,5680.4841
56.6264,5679.9199
56.6434,5679.3556
56.6604,5678.7914
56.6774,5678.2271
56.6944,5677.6629
56.7114,5677.0986
56.7284,5676.5343
56.7454,5675.8185
56.7624,5675.1026
56.7794,5674.3867
56.7964,5673.6708
56.8134,5672.9549
56.8304,5672.2391
56.8474,5671.5232
56.8644,5670.8073
56.8814,5670.0914
56.8984,5669.3755
56.9154,5668.6597
56.9324,5667.9438
56.9494,5667.2279
56.9664,5666.512
56.9834,5665.7961
57.0004,5666.4364
57.0174,5667.0767
57.0344,5667.717
57.0514,5668.3573
57.0684,5668.9976
57.0854,5669.6378
57.1024,5670.2781
57.1194,5670.9184
57.1364,5671.5587
57.1534,5672.199
57.1704,5672.8393
57.1874,5673.4796
57.2044,5674.1198
57.2214,5674.7601
57.2384,5675.4004
57.2554,5675.8906
57.2724,5676.3808
57.2894,5676.871
57.3064,5677.3613
57.3234,5677.8515
57.3404,5678.3417
57.3574,5678.8319
57.3744,5679.3221
57.3914,5679.8123
57.4084,5680.3025
57.4254,5680.7927
57.4424,5681.2829
57.4594,5681.7731
57.4764,5682.2634
57.4934,5682.7536
57.5104,5683.096
57.5274,5683.4384
57.5444,5683.7808
57.5614,5684.1232
57.5784,5684.4657
57.5954,5684.8081
57.6124,5685.1505
57.6294,5685.4929
57.6464,5685.8354
57.6634,5686.1778
57.6804,5686.5202
57.6974,5686.8626
57.7144,5687.205
57.7314,5687.5475
57.7484,5687.8899
57.7654,5688.2323
57.7824,5688.5747
57.7994,5688.9172
57.8164,5689.2596
57.8334,5689.602
57.8504,5689.9444
57.8674,5690.2868
57.8844,5690.6293
57.9014,5690.9717
57.9184,5691.3141
57.9354,5691.6565
57.9524,5691.9989
57.9694,5692.3414
57.9864,5692.6838
58.0034,5693.0262
58.0204,5693.2208
58.0374,5693.4155
58.0544,5693.6101
58.0714,5693.8047
58.0884,5693.9994
58.1054,5694.194
58.1224,5694.3886
58.1394,5694.5833
58.1564,5694.7779
58.1734,5694.9725
58.1904,5695.1672
58.2074,5695.3618
58.2244,5695.5564
58.2414,5695.7511
58.2584,5695.9457
58.2754,5695.9948
58.2924,5696.044
58.3094,5696.0931
58.3264,5696.1422
58.3434,5696.1914
58.3604,5696.2405
58.3774,5696.2896
58.3944,5696.3388
58.4114,5696.3879
58.4284,5696.437
58.4454,5696.4862
58.4624,5696.5353
58.4794,5696.5844
58.4964,5696.6335
58.5134,5696.6827
58.5304,5696.5821
58.5474,5696.4815
58.5644,5696.3809
58.5814,5696.2803
58.5984,5696.1796
58.6154,5696.079
58.6324,5695.9784
58.6494,5695.8778
58.6664,5695.7772
58.6834,5695.6766
58.7004,5695.576
58.7174,5695.4754
58.7344,5695.3748
58.7514,5695.2742
58.7684,5695.1736
58.7854,5694.9112
58.8024,5694.6488
58.8194,5694.3863
58.8364,5694.1239
58.8534,5693.8615
58.8704,5693.5991
58.8874,5693.3367
58.9044,5693.0742
58.9214,5692.8118
58.9384,5692.5494
58.9554,5692.287
58.9724,5692.0246
58.9894,5691.7621
59.0064,5691.4997
59.0234,5691.2373
59.0404,5690.8274
59.0574,5690.4175
59.0744,5690.0076
59.0914,5689.5977
59.1084,5689.1878
59.1254,5688.778
59.1424,5688.3681
59.1594,5687.9582
59.1764,5687.5483
59.1934,5687.1384
59.2104,5686.7285
59.2274,5686.3186
59.2444,5685.9087
59.2614,5685.4988
59.2784,5685.089
59.2954,5685.4563
59.3124,5685.8235
59.3294,5686.1908
59.3464,5686.5581
59.3634,5686.9254
59.3804,5687.2927
59.3974,5687.66
59.4144,5688.0273
59.4314,5688.3946
59.4484,5688.7619
59.4654,5689.1292
59.4824,5689.4965
59.4994,5689.8638
59.5164,5690.2311
59.5334,5690.5984
59.5504,5690.8108
59.5674,5691.0232
59.5844,5691.2357
59.6014,5691.4481
59.6184,5691.6605
59.6354,5691.873
59.6524,5692.0854
59.6694,5692.2978
59.6864,5692.5103
59.7034,5692.7227
59.7204,5692.9351
59.7374,5693.1476
59.7544,5693.36
59.7714,5693.5724
59.7884,5693.7849
59.8054,5693.8413
59.8224,5693.8977
59.8394,5693.9541
59.8564,5694.0105
59.8734,5694.0669
59.8904,5694.1233
59.9074,5694.1797
59.9244,5694.2361
59.9414,5694.2925
59.9584,5694.3489
59.9754,5694.4053
59.9924,5694.4617
60.0094,5694.5181
60.0264,5694.5745
60.0434,5694.6309
60.0604,5694.6873
60.0774,5694.7437
60.0944,5694.8001
60.1114,5694.8565
60.1284,5694.9129
60.1454,5694.9693
60.1624,5695.0257
60.1794,5695.0821
60.1964,5695.1385
60.2134,5695.1949
60.2304,5695.2513
60.2474,5695.3077
60.2644,5695.3641
60.2814,5695.4205
60.2984,5695.4769
60.3154,5695.3772
60.3324,5695.2776
60.3494,5695.178
60.3664,5695.0783
60.3834,5694.9787
60.4004,5694.879
60.4174,5694.7794
60.4344,5694.6798
60.4514,5694.5801
60.4684,5694.4805
60.4854,5694.3809
60.5024,5694.2812
60.5194,5694.1816
60.5364,5694.082
60.5534,5693.9823
60.5704,5693.7255
60.5874,5693.4687
60.6044,5693.2118
60.6214,5692.955
60.6384,5692.6981
60.6554,5692.4413
60.6724,5692.1844
60.6894,5691.9276
60.7064,5691.6708
60.7234,5691.4139
60.7404,5691.1571
60.7574,5690.9002
60.7744,5690.6434
60.7914,5690.3866
60.8084,5690.1297
60.8254,5690.8937
60.8424,5691.6577
60.8594,5692.4217
60.8764,5693.1857
60.8934,5693.9497
60.9104,5694.7137
60.9274,5695.4777
60.9444,5696.2418
60.9614,5697.0058
60.9784,5697.7698
60.9954,5698.5338
61.0124,5699.2978
61.0294,5700.0618
61.0464,5700.8258
61.0634,5701.5898
61.0804,5702.2084
61.0974,5702.8269
61.1144,5703.4455
61.1314,5704.0641
61.1484,5704.6827
61.1654,5705.3013
61.1824,5705.9199
61.1994,5706.5384
61.2164,5707.157
61.2334,5707.7756
61.2504,5708.3942
61.2674,5709.0128
61.2844,5709.6314
61.3014,5710.2499
61.3184,5710.8685
61.3354,5711.3383
61.3524,5711.8081
61.3694,5712.2779
61.3864,5712.7477
61.4034,5713.2175
61.4204,5713.6873
61.4374,5714.157
61.4544,5714.6268
61.4714,5715.0966
61.4884,5715.5664
61.5054,5716.0362
61.5224,5716.506
61.5394,5716.9758
61.5564,5717.4456
61.5734,5717.9154
61.5904,5718.2461
61.6074,5718.5769
61.6244,5718.9076
61.6414,5719.2384
61.6584,5719.5691
61.6754,5719.8999
61.6924,5720.2306
61.7094,5720.5614
61.7264,5720.8921
61.7434,5721.2229
61.7604,5721.5536
61.7774,5721.8844
61.7944,5722.2151
61.8114,5722.5459
61.8284,5722.8766
61.8454,5723.0727
61.8624,5723.2687
61.8794,5723.4648
61.8964,5723.6608
61.9134,5723.8569
61.9304,5724.0529
61.9474,5724.249
61.9644,5724.445
61.9814,5724.6411
61.9984,5724.8371
62.0154,5725.0332
62.0324,5725.2292
62.0494,5725.4253
62.0664,5725.6213
62.0834,5725.8174
62.1004,5726.0134
62.1174,5726.2095
62.1344,5726.4056
62.1514,5726.6016
62.1684,5726.7977
62.1854,5726.9937
62.2024,5727.1898
62.2194,5727.3858
62.2364,5727.5819
62.2534,5727.7779
62.2704,5727.974
62.2874,5728.17
62.3044,5728.3661
62.3214,5728.5621
62.3384,5728.7582
62.3554,5728.8195
62.3724,5728.8809
62.3894,5728.9422
62.4064,5729.0036
62.4234,5729.0649
62.4404,5729.1263
62.4574,5729.1876
62.4744,5729.249
62.4914,5729.3103
62.5084,5729.3717
62.5254,5729.433
62.5424,5729.4944
62.5594,5729.5557
62.5764,5729.6171
62.5934,5729.6784
62.6104,5729.6094
62.6274,5729.5404
62.6444,5729.4714
62.6614,5729.4024
62.6784,5729.3333
62.6954,5729.2643
62.7124,5729.1953
62.7294,5729.1263
62.7464,5729.0573
62.7634,5728.9883
62.7804,5728.9193
62.7974,5728.8503
62.8144,5728.7812
62.8314,5728.7122
62.8484,5728.6432
62.8654,5728.4428
62.8824,5728.2423
62.8994,5728.0418
62.9164,5727.8414
62.9334,5727.6409
62.9504,5727.4405
62.9674,5727.24
62.9844,5727.0395
63.0014,5726.8391
63.0184,5726.6386
63.0354,5726.4382
63.0524,5726.2377
63.0694,5726.0372
63.0864,5725.8368
63.1034,5725.6363
63.1204,5725.2794
63.1374,5724.9224
63.1544,5724.5655
63.1714,5724.2085
63.1884,5723.8516
63.2054,5723.4946
63.2224,5723.1377
63.2394,5722.7807
63.2564,5722.4238
63.2734,5722.0668
63.2904,5721.7098
63.3074,5721.3529
63.3244,5720.9959
63.3414,5720.639
63.3584,5720.282
63.3754,5719.7315
63.3924,5719.181
63.4094,5718.6304
63.4264,5718.0799
63.4434,5717.5293
63.4604,5716.9788
63.4774,5716.4283
63.4944,5715.8777
63.5114,5715.3272
63.5284,5714.7767
63.5454,5714.2261
63.5624,5713.6756
63.5794,5713.1251
63.5964,5712.5745
63.6134,5712.024
63.6304,5712.9388
63.6474,5713.8536
63.6644,5714.7683
63.6814,5715.6831
63.6984,5716.5979
63.7154,5717.5127
63.7324,5718.4275
63.7494,5719.3423
63.7664,5720.257
63.7834,5721.1718
63.8004,5722.0866
63.8174,5723.0014
63.8344,5723.9162
63.8514,5724.831
63.8684,5725.7457
63.8854,5726.6605
63.9024,5727.5753
63.9194,5728.4901
63.9364,5729.4049
63.9534,5730.3197
63.9704,5731.2344
63.9874,5732.1492
64.0044,5733.064
64.0214,5733.9788
64.0384,5734.8936
64.0554,5735.8084
64.0724,5736.7231
64.0894,5737.6379
64.1064,5738.5527
64.1234,5739.4675
64.1404,5740.2601
64.1574,5741.0528
64.1744,5741.8454
64.1914,5742.6381
64.2084,5743.4307
64.2254,5744.2233
64.2424,5745.016
64.2594,5745.8086
64.2764,5746.6013
64.2934,5747.3939
64.3104,5748.1865
64.3274,5748.9792
64.3444,5749.7718
64.3614,5750.5645
64.3784,5751.3571
64.3954,5752.0849
64.4124,5752.8126
64.4294,5753.5404
64.4464,5754.2682
64.4634,5754.9959
64.4804,5755.7237
64.4974,5756.4514
64.5144,5757.1792
64.5314,5757.907
64.5484,5758.6347
64.5654,5759.3625
64.5824,5760.0902
64.5994,5760.818
64.6164,5761.5458
64.6334,5762.2735
64.6504,5762.821
64.6674,5763.3685
64.6844,5763.9161
64.7014,5764.4636
64.7184,5765.0111
64.7354,5765.5586
64.7524,5766.1061
64.7694,5766.6536
64.7864,5767.2011
64.8034,5767.7486
64.8204,5768.2961
64.8374,5768.8437
64.8544,5769.3912
64.8714,5769.9387
64.8884,5770.4862
64.9054,5770.8879
64.9224,5771.2896
64.9394,5771.6914
64.9564,5772.0931
64.9734,5772.4948
64.9904,5772.8965
65.0074,5773.2983
65.0244,5773.7
65.0414,5774.1017
65.0584,5774.5034
65.0754,5774.9052
65.0924,5775.3069
65.1094,5775.7086
65.1264,5776.1103
65.1434,5776.5121
65.1604,5776.9138
65.1774,5777.3155
65.1944,5777.7172
65.2114,5778.119
65.2284,5778.5207
65.2454,5778.9224
65.2624,5779.3241
65.2794,5779.7259
65.2964,5780.1276
65.3134,5780.5293
65.3304,5780.931
65.3474,5781.3328
65.3644,5781.7345
65.3814,5782.1362
65.3984,5782.5379
65.4154,5782.7939
65.4324,5783.0498
65.4494,5783.3058
65.4664,5783.5617
65.4834,5783.8176
65.5004,5784.0736
65.5174,5784.3295
65.5344,5784.5854
65.5514,5784.8414
65.5684,5785.0973
65.5854,5785.3533
65.6024,5785.6092
65.6194,5785.8651
65.6364,5786.1211
65.6534,5786.377
65.6704,5786.4786
65.6874,5786.5801
65.7044,5786.6817
65.7214,5786.7832
65.7384,5786.8848
65.7554,5786.9863
65.7724,5787.0879
65.7894,5787.1894
65.8064,5787.291
65.8234,5787.3925
65.8404,5787.4941
65.8574,5787.5956
65.8744,5787.6972
65.8914,5787.7988
65.9084,5787.9003
65.9254,5787.8385
65.9424,5787.7768
65.9594,5787.715
65.9764,5787.6532
65.9934,5787.5915
66.0104,5787.5297
66.0274,5787.4679
66.0444,5787.4061
66.0614,5787.3444
66.0784,5787.2826
66.0954,5787.2208
66.1124,5787.1591
66.1294,5787.0973
66.1464,5787.0355
66.1634,5786.9738
66.1804,5786.728
66.1974,5786.4822
66.2144,5786.2364
66.2314,5785.9906
66.2484,5785.7448
66.2654,5785.499
66.2824,5785.2532
66.2994,5785.0074
66.3164,5784.7616
66.3334,5784.5158
66.3504,5784.27
66.3674,5784.0242
66.3844,5783.7784
66.4014,5783.5326
66.4184,5783.2868
66.4354,5782.8978
66.4524,5782.5088
66.4694,5782.1198
66.4864,5781.7308
66.5034,5781.3418
66.5204,5780.9528
66.5374,5780.5639
66.5544,5780.1749
66.5714,5779.7859
66.5884,5779.3969
66.6054,5779.0079
66.6224,5778.6189
66.6394,5778.2299
66.6564,5777.8409
66.6734,5777.4519
66.6904,5776.92
66.7074,5776.3881
66.7244,5775.8561
66.7414,5775.3242
66.7584,5774.7923
66.7754,5774.2603
66.7924,5773.7284
66.8094,5773.1965
66.8264,5772.6645
66.8434,5772.1326
66.8604,5771.6007
66.8774,5771.0688
66.8944,5770.5368
66.9114,5770.0049
66.9284,5769.473
66.9454,5768.941
66.9624,5768.4091
66.9794,5767.8772
66.9964,5767.3453
67.0134,5766.8133
67.0304,5766.2814
67.0474,5765.7495
67.0644,5765.2175
67.0814,5764.6856
67.0984,5764.1537
67.1154,5763.6218
67.1324,5763.0898
67.1494,5762.5579
67.1664,5762.026
67.1834,5761.494
67.2004,5760.8192
67.2174,5760.1443
67.2344,5759.4694
67.2514,5758.7946
67.2684,5758.1197
67.2854,5757.4448
67.3024,5756.77
67.3194,5756.0951
67.3364,5755.4202
67.3534,5754.7454
67.3704,5754.0705
67.3874,5753.3956
67.4044,5752.7208
67.4214,5752.0459
67.4384,5751.3711
67.4554,5751.205
67.4724,5751.0389
67.4894,5750.8728
67.5064,5750.7067
67.5234,5750.5406
67.5404,5750.3745
67.5574,5750.2084
67.5744,5750.0423
67.5914,5749.8762
67.6084,5749.7101
67.6254,5749.544
67.6424,5749.3779
67.6594,5749.2118
67.6764,5749.0457
67.6934,5748.8796
67.7104,5748.7135
67.7274,5748.5474
67.7444,5748.3813
67.7614,5748.2152
67.7784,5748.0491
67.7954,5747.883
67.8124,5747.7169
67.8294,5747.5508
67.8464,5747.3847
67.8634,5747.2186
67.8804,5747.0525
67.8974,5746.8864
67.9144,5746.7203
67.9314,5746.5542
67.9484,5746.3881
67.9654,5746.0345
67.9824,5745.6808
67.9994,5745.3272
68.0164,5744.9735
68.0334,5744.6199
68.0504,5744.2662
68.0674,5743.9126
68.0844,5743.5589
68.1014,5743.2052
68.1184,5742.8516
68.1354,5742.4979
68.1524,5742.1443
68.1694,5741.7906
68.1864,5741.437
68.2034,5741.0833
68.2204,5740.6119
68.2374,5740.1404
68.2544,5739.669
68.2714,5739.1975
68.2884,5738.7261
68.3054,5738.2546
68.3224,5737.7832
68.3394,5737.3117
68.3564,5736.8403
68.3734,5736.3688
68.3904,5735.8974
68.4074,5735.4259
68.4244,5734.9545
68.4414,5734.483
68.4584,5734.0116
68.4754,5733.5401
68.4924,5733.0687
68.5094,5732.5972
68.5264,5732.1258
68.5434,5731.6543
68.5604,5731.1829
68.5774,5730.7114
68.5944,5730.24
68.6114,5729.7685
68.6284,5729.2971
68.6454,5728.8256
68.6624,5728.3542
68.6794,5727.8827
68.6964,5727.4113
68.7134,5726.9398
68.7304,5726.3279
68.7474,5725.7159
68.7644,5725.104
68.7814,5724.492
68.7984,5723.8801
68.8154,5723.2682
68.8324,5722.6562
68.8494,5722.0443
68.8664,5721.4323
68.8834,5720.8204
68.9004,5720.2084
68.9174,5719.5965
68.9344,5718.9846
68.9514,5718.3726
68.9684,5717.7607
68.9854,5718.5532
69.0024,5719.3458
69.0194,5720.1384
69.0364,5720.931
69.0534,5721.7235
69.0704,5722.5161
69.0874,5723.3087
69.1044,5724.1013
69.1214,5724.8938
69.1384,5725.6864
69.1554,5726.479
69.1724,5727.2716
69.1894,5728.0641
69.2064,5728.8567
69.2234,5729.6493
69.2404,5730.4418
69.2574,5731.2344
69.2744,5732.027
69.2914,5732.8196
69.3084,5733.6121
69.3254,5734.4047
69.3424,5735.1973
69.3594,5735.9899
69.3764,5736.7824
69.3934,5737.575
69.4104,5738.3676
69.4274,5739.1602
69.4444,5739.9527
69.4614,5740.7453
69.4784,5741.5379
69.4954,5743.6086
69.5124,5745.6793
69.5294,5747.75
69.5464,5749.8207
69.5634,5751.8914
69.5804,5753.9622
69.5974,5756.0329
69.6144,5758.1036
69.6314,5760.1743
69.6484,5762.245
69.6654,5764.3157
69.6824,5766.3864
69.6994,5768.4571
69.7164,5770.5279
69.7334,5772.5986
69.7504,5774.6693
69.7674,5776.74
69.7844,5778.8107
69.8014,5780.8814
69.8184,5782.9521
69.8354,5785.0229
69.8524,5787.0936
69.8694,5789.1643
69.8864,5791.235
69.9034,5793.3057
69.9204,5795.3764
69.9374,5797.4471
69.9544,5799.5178
69.9714,5801.5886
69.9884,5801.5886
