2Theta,Intensity
20.0084,7218.7827
20.0254,7212.4941
20.0424,7206.2055
20.0594,7199.9171
20.0764,7194.5843
20.0934,7188.3008
20.1104,7182.0174
20.1274,7175.7341
20.1444,7169.9287
20.1614,7163.648
20.1784,7157.3675
20.1954,7151.087
20.2124,7144.8067
20.2294,7138.5266
20.2464,7132.2466
20.2634,7125.9667
20.2804,7119.5283
20.2974,7113.0899
20.3144,7106.6518
20.3314,7100.2138
20.3484,7093.7759
20.3654,7087.3382
20.3824,7080.9006
20.3994,7074.4632
20.4164,7068.026
20.4334,7061.5889
20.4504,7055.152
20.4674,7048.7153
20.4844,7042.2787
20.5014,7035.8423
20.5184,7029.4061
20.5354,7022.9701
20.5524,7016.5342
20.5694,7010.0985
20.5864,7003.663
20.6034,6997.2277
20.6204,6990.7926
20.6374,6984.3577
20.6544,6977.923
20.6714,6971.4884
20.6884,6965.0541
20.7054,6958.62
20.7224,6952.1861
20.7394,6945.7524
20.7564,6939.3189
20.7734,6932.8857
20.7904,6926.2939
20.8074,6919.7024
20.8244,6913.111
20.8414,6906.52
20.8584,6899.9291
20.8754,6893.3385
20.8924,6886.7482
20.9094,6880.158
20.9264,6873.5682
20.9434,6866.9786
20.9604,6860.3892
20.9774,6853.8002
20.9944,6847.2114
21.0114,6840.6228
21.0284,6834.0346
21.0454,6830.4546
21.0624,6826.875
21.0794,6823.2956
21.0964,6819.7166
21.1134,6816.1378
21.1304,6812.5594
21.1474,6808.9812
21.1644,6805.4034
21.1814,6801.8259
21.1984,6798.2487
21.2154,6794.6719
21.2324,6791.0954
21.2494,6787.5193
21.2664,6783.9435
21.2834,6780.3681
21.3004,6776.6546
21.3174,6772.9414
21.3344,6769.2286
21.3514,6765.5162
21.3684,6761.8042
21.3854,6758.0926
21.4024,6754.3814
21.4194,6750.6706
21.4364,6746.9602
21.4534,6743.2503
21.4704,6739.5409
21.4874,6735.8318
21.5044,6732.1233
21.5214,6728.4152
21.5384,6724.7076
21.5554,6721.0005
21.5724,6717.2939
21.5894,6713.5878
21.6064,6709.8822
21.6234,6706.1772
21.6404,6702.4727
21.6574,6698.7687
21.6744,6695.0654
21.6914,6691.3626
21.7084,6687.6604
21.7254,6683.9587
21.7424,6680.2577
21.7594,6676.5574
21.7764,6672.8577
21.7934,6669.1586
21.8104,6665.3217
21.8274,6661.4855
21.8444,6657.6499
21.8614,6653.8151
21.8784,6649.9811
21.8954,6646.1478
21.9124,6642.3152
21.9294,6638.4834
21.9464,6634.6525
21.9634,6630.8223
21.9804,6626.993
21.9974,6623.1646
22.0144,6619.3371
22.0314,6615.5104
22.0484,6611.6847
22.0654,6607.6885
22.0824,6603.6932
22.0994,6599.6989
22.1164,6595.7057
22.1334,6591.7135
22.1504,6587.7224
22.1674,6583.7324
22.1844,6579.7435
22.2014,6575.7558
22.2184,6571.7693
22.2354,6567.784
22.2524,6563.7999
22.2694,6559.8172
22.2864,6555.8358
22.3034,6551.8557
22.3204,6547.9387
22.3374,6544.0231
22.3544,6540.109
22.3714,6536.1964
22.3884,6532.2854
22.4054,6528.3761
22.4224,6524.4683
22.4394,6520.5623
22.4564,6516.6581
22.4734,6512.7556
22.4904,6508.855
22.5074,6504.9564
22.5244,6501.0597
22.5414,6497.1651
22.5584,6493.2726
22.5754,6489.2655
22.5924,6485.2607
22.6094,6481.2583
22.6264,6477.2582
22.6434,6473.2606
22.6604,6469.2655
22.6774,6465.2731
22.6944,6461.2834
22.7114,6457.2966
22.7284,6453.3127
22.7454,6449.3318
22.7624,6445.354
22.7794,6441.3795
22.7964,6437.4084
22.8134,6433.4407
22.8304,6429.4767
22.8474,6425.5164
22.8644,6421.56
22.8814,6417.6076
22.8984,6413.6594
22.9154,6409.7156
22.9324,6405.7763
22.9494,6401.8418
22.9664,6397.9121
22.9834,6393.9875
23.0004,6390.0682
23.0174,6386.1545
23.0344,6382.2465
23.0514,6378.3445
23.0684,6374.4488
23.0854,6370.4429
23.1024,6366.4438
23.1194,6362.4519
23.1364,6358.4674
23.1534,6354.4907
23.1704,6350.5222
23.1874,6346.5622
23.2044,6342.6112
23.2214,6338.6695
23.2384,6334.7377
23.2554,6330.8163
23.2724,6326.9057
23.2894,6323.0066
23.3064,6319.1195
23.3234,6315.245
23.3404,6314.5299
23.3574,6313.829
23.3744,6313.1431
23.3914,6312.4732
23.4084,6311.8201
23.4254,6311.1852
23.4424,6310.5696
23.4594,6309.9747
23.4764,6309.4021
23.4934,6308.8535
23.5104,6308.3311
23.5274,6307.837
23.5444,6307.3739
23.5614,6306.945
23.5784,6306.5536
23.5954,6306.0554
23.6124,6305.6034
23.6294,6305.2033
23.6464,6304.8611
23.6634,6304.5842
23.6804,6304.3808
23.6974,6304.2605
23.7144,6304.2343
23.7314,6304.3145
23.7484,6304.5154
23.7654,6304.8528
23.7824,6305.3446
23.7994,6306.0107
23.8164,6306.8732
23.8334,6307.9565
23.8504,6309.287
23.8674,6310.8933
23.8844,6312.8063
23.9014,6315.0586
23.9184,6317.6846
23.9354,6320.7202
23.9524,6324.202
23.9694,6328.1672
23.9864,6332.6529
24.0034,6337.6954
24.0204,6343.3295
24.0374,6349.5876
24.0544,6356.4987
24.0714,6364.0875
24.0884,6372.3736
24.1054,6381.2214
24.1224,6390.785
24.1394,6401.0612
24.1564,6412.0369
24.1734,6423.6876
24.1904,6435.9762
24.2074,6448.8516
24.2244,6462.2468
24.2414,6476.077
24.2584,6490.2383
24.2754,6504.6051
24.2924,6519.0289
24.3094,6533.3367
24.3264,6547.3306
24.3434,6560.7888
24.3604,6573.3206
24.3774,6584.8146
24.3944,6595.0042
24.4114,6603.6261
24.4284,6610.4338
24.4454,6615.2123
24.4624,6617.7924
24.4794,6618.0626
24.4964,6615.9775
24.5134,6611.5611
24.5304,6604.9042
24.5474,6596.1574
24.5644,6585.5197
24.5814,6573.2255
24.5984,6559.53
24.6154,6544.5062
24.6324,6528.604
24.6494,6512.0705
24.6664,6495.1346
24.6834,6478.0027
24.7004,6460.8573
24.7174,6443.857
24.7344,6427.1367
24.7514,6410.8096
24.7684,6394.9688
24.7854,6379.6892
24.8024,6365.0288
24.8194,6351.031
24.8364,6337.7258
24.8534,6325.1314
24.8704,6313.0851
24.8874,6301.7555
24.9044,6291.1331
24.9214,6281.2012
24.9384,6271.9376
24.9554,6263.3153
24.9724,6255.3036
24.9894,6247.8691
25.0064,6240.9763
25.0234,6234.5889
25.0404,6228.6701
25.0574,6223.1833
25.0744,6218.0928
25.0914,6213.3639
25.1084,6208.9637
25.1254,6207.1226
25.1424,6205.5499
25.1594,6204.2187
25.1764,6203.1042
25.1934,6202.184
25.2104,6201.4376
25.2274,6200.8469
25.2444,6200.3957
25.2614,6200.0696
25.2784,6199.856
25.2954,6199.744
25.3124,6199.7241
25.3294,6199.788
25.3464,6199.9288
25.3634,6200.1405
25.3804,6200.2667
25.3974,6200.4546
25.4144,6200.7007
25.4314,6201.0022
25.4484,6201.3567
25.4654,6201.7625
25.4824,6202.2181
25.4994,6202.7226
25.5164,6203.2752
25.5334,6203.8757
25.5504,6204.5239
25.5674,6205.2201
25.5844,6205.9647
25.6014,6206.7585
25.6184,6207.6024
25.6354,6208.3343
25.6524,6209.119
25.6694,6209.9587
25.6864,6210.8553
25.7034,6211.8115
25.7204,6212.8303
25.7374,6213.9151
25.7544,6215.0698
25.7714,6216.2991
25.7884,6217.6082
25.8054,6219.0029
25.8224,6220.4901
25.8394,6222.0776
25.8564,6223.7741
25.8734,6225.5895
25.8904,6227.3581
25.9074,6229.2696
25.9244,6231.3385
25.9414,6233.5808
25.9584,6236.0145
25.9754,6238.6596
25.9924,6241.5386
26.0094,6244.6762
26.0264,6248.0995
26.0434,6251.8385
26.0604,6255.926
26.0774,6260.3976
26.0944,6265.2918
26.1114,6270.6502
26.1284,6276.5171
26.1454,6282.7581
26.1624,6289.6051
26.1794,6297.1108
26.1964,6305.3299
26.2134,6314.3194
26.2304,6324.1378
26.2474,6334.8443
26.2644,6346.4991
26.2814,6359.1617
26.2984,6372.8911
26.3154,6387.7443
26.3324,6403.7757
26.3494,6421.0362
26.3664,6439.5719
26.3834,6459.4233
26.4004,6480.445
26.4174,6502.8417
26.4344,6526.6299
26.4514,6551.8154
26.4684,6578.3925
26.4854,6606.3421
26.5024,6635.6306
26.5194,6666.2085
26.5364,6698.0084
26.5534,6730.9439
26.5704,6764.9071
26.5874,6799.7674
26.6044,6835.3686
26.6214,6871.5277
26.6384,6908.0321
26.6554,6944.4648
26.6724,6980.7226
26.6894,7016.4958
26.7064,7051.4418
26.7234,7085.1867
26.7404,7117.3301
26.7574,7147.4509
26.7744,7175.1165
26.7914,7199.895
26.8084,7221.3694
26.8254,7239.1531
26.8424,7252.9073
26.8594,7262.3563
26.8764,7267.302
26.8934,7267.6335
26.9104,7263.1672
26.9274,7254.1459
26.9444,7240.7355
26.9614,7223.1821
26.9784,7201.7995
26.9954,7176.9536
27.0124,7149.0471
27.0294,7118.5028
27.0464,7085.7499
27.0634,7051.2111
27.0804,7015.2933
27.0974,6978.3794
27.1144,6940.824
27.1314,6902.9502
27.1484,6865.0488
27.1654,6827.2182
27.1824,6789.8446
27.1994,6753.1244
27.2164,6717.2264
27.2334,6682.2931
27.2504,6648.4431
27.2674,6616.2655
27.2844,6584.8538
27.3014,6554.7561
27.3184,6526.0134
27.3354,6498.6516
27.3524,6472.9286
27.3694,6448.3529
27.3864,6425.1579
27.4034,6403.322
27.4204,6382.8153
27.4374,6363.6003
27.4544,6345.6334
27.4714,6328.8659
27.4884,6313.2448
27.5054,6298.7143
27.5224,6285.2164
27.5394,6272.6916
27.5564,6261.0801
27.5734,6250.322
27.5904,6240.3586
27.6074,6231.1321
27.6244,6222.5867
27.6414,6214.6686
27.6584,6207.3264
27.6754,6200.3522
27.6924,6193.8594
27.7094,6187.8051
27.7264,6182.1491
27.7434,6176.8543
27.7604,6171.8867
27.7774,6167.2147
27.7944,6162.8097
27.8114,6158.6456
27.8284,6154.6987
27.8454,6150.9478
27.8624,6147.3736
27.8794,6143.9588
27.8964,6140.688
27.9134,6137.5476
27.9304,6134.3727
27.9474,6131.3048
27.9644,6128.3345
27.9814,6125.453
27.9984,6122.6527
28.0154,6119.927
28.0324,6117.2697
28.0494,6114.6756
28.0664,6112.14
28.0834,6109.6586
28.1004,6107.2276
28.1174,6104.8438
28.1344,6102.504
28.1514,6100.2056
28.1684,6097.9461
28.1854,6095.5774
28.2024,6093.2433
28.2194,6090.942
28.2364,6088.6718
28.2534,6086.4311
28.2704,6084.2185
28.2874,6082.0326
28.3044,6079.8722
28.3214,6077.7361
28.3384,6075.6747
28.3554,6073.5843
28.3724,6071.5152
28.3894,6069.4665
28.4064,6067.4372
28.4234,6065.4524
28.4404,6063.3194
28.4574,6061.2036
28.4744,6059.1044
28.4914,6057.021
28.5084,6054.953
28.5254,6052.8996
28.5424,6050.8603
28.5594,6048.8347
28.5764,6046.8221
28.5934,6044.8222
28.6104,6042.8344
28.6274,6040.8583
28.6444,6038.8936
28.6614,6036.9397
28.6784,6034.9963
28.6954,6032.9261
28.7124,6030.8656
28.7294,6028.8146
28.7464,6026.7728
28.7634,6024.7397
28.7804,6022.7152
28.7974,6020.699
28.8144,6018.6908
28.8314,6016.6902
28.8484,6014.6972
28.8654,6012.7113
28.8824,6010.7325
28.8994,6008.7605
28.9164,6006.795
28.9334,6004.8359
28.9504,6002.7474
28.9674,6000.665
28.9844,5998.5883
29.0014,5996.5172
29.0184,5994.4517
29.0354,5992.3914
29.0524,5990.3363
29.0694,5988.2862
29.0864,5986.2409
29.1034,5984.2004
29.1204,5982.1645
29.1374,5980.133
29.1544,5978.1059
29.1714,5976.083
29.1884,5974.0642
29.2054,5971.8818
29.2224,5969.7033
29.2394,5967.5286
29.2564,5965.3576
29.2734,5963.1902
29.2904,5961.0263
29.3074,5958.8658
29.3244,5956.7086
29.3414,5954.5546
29.3584,5952.4038
29.3754,5950.2561
29.3924,5948.1114
29.4094,5945.9696
29.4264,5943.8307
29.4434,5941.6946
29.4604,5940.2607
29.4774,5938.8294
29.4944,5937.4007
29.5114,5935.9746
29.5284,5934.5509
29.5454,5933.1297
29.5624,5931.7109
29.5794,5930.2944
29.5964,5928.8802
29.6134,5927.4681
29.6304,5926.0583
29.6474,5924.6506
29.6644,5923.245
29.6814,5921.8415
29.6984,5920.4399
29.7154,5918.9078
29.7324,5917.3775
29.7494,5915.8491
29.7664,5914.3226
29.7834,5912.798
29.8004,5911.275
29.8174,5909.7539
29.8344,5908.2345
29.8514,5906.7167
29.8684,5905.2006
29.8854,5903.6862
29.9024,5902.1733
29.9194,5900.662
29.9364,5899.1523
29.9534,5897.6441
29.9704,5896.1373
29.9874,5894.6321
30.0044,5893.1283
30.0214,5891.6259
30.0384,5890.125
30.0554,5888.6254
30.0724,5886.7948
30.0894,5885.3
30.1064,5883.8064
30.1234,5882.3142
30.1404,5880.6574
30.1574,5879.1888
30.1744,5877.7015
30.1914,5876.2154
30.2084,5874.7304
30.2254,5873.1141
30.2424,5871.509
30.2594,5869.8951
30.2764,5868.2824
30.2934,5866.6707
30.3104,5865.0603
30.3274,5863.4509
30.3444,5861.8427
30.3614,5860.2355
30.3784,5858.6295
30.3954,5857.0245
30.4124,5855.4207
30.4294,5853.8178
30.4464,5852.2161
30.4634,5850.6154
30.4804,5848.8519
30.4974,5847.0894
30.5144,5845.3279
30.5314,5843.5675
30.5484,5841.8081
30.5654,5840.0497
30.5824,5838.2924
30.5994,5836.536
30.6164,5834.7807
30.6334,5833.0264
30.6504,5831.2731
30.6674,5829.5208
30.6844,5827.7696
30.7014,5826.0193
30.7184,5824.2701
30.7354,5824.4075
30.7524,5824.546
30.7694,5824.6855
30.7864,5824.826
30.8034,5824.9675
30.8204,5825.11
30.8374,5825.2535
30.8544,5825.3981
30.8714,5825.5437
30.8884,5825.6904
30.9054,5825.838
30.9224,5825.9867
30.9394,5826.1365
30.9564,5826.2873
30.9734,5826.4392
30.9904,5826.4881
31.0074,5826.538
31.0244,5826.589
31.0414,5826.6412
31.0584,5826.6944
31.0754,5826.7487
31.0924,5826.8042
31.1094,5826.8608
31.1264,5826.9185
31.1434,5826.9775
31.1604,5827.0376
31.1774,5827.0988
31.1944,5827.1613
31.2114,5827.225
31.2284,5827.29
31.2454,5827.2319
31.2624,5827.1752
31.2794,5827.1197
31.2964,5827.0656
31.3134,5827.0127
31.3304,5826.9612
31.3474,5826.9111
31.3644,5826.8624
31.3814,5826.815
31.3984,5826.7691
31.4154,5826.7247
31.4324,5826.6818
31.4494,5826.6403
31.4664,5826.6004
31.4834,5826.5621
31.5004,5826.5254
31.5174,5826.4903
31.5344,5826.4569
31.5514,5826.4925
31.5684,5826.4628
31.5854,5826.4349
31.6024,5826.4089
31.6194,5826.3847
31.6364,5826.3623
31.6534,5826.3756
31.6704,5826.3574
31.6874,5826.3411
31.7044,5826.327
31.7214,5826.3149
31.7384,5826.3051
31.7554,5826.1046
31.7724,5825.9065
31.7894,5825.7107
31.8064,5825.5173
31.8234,5825.3263
31.8404,5825.1378
31.8574,5824.952
31.8744,5824.7688
31.8914,5824.5883
31.9084,5824.4107
31.9254,5824.2359
31.9424,5824.0641
31.9594,5823.8953
31.9764,5823.7297
31.9934,5823.5673
32.0104,5823.272
32.0274,5822.98
32.0444,5822.6917
32.0614,5822.4069
32.0784,5822.1259
32.0954,5821.8487
32.1124,5821.5755
32.1294,5821.3064
32.1464,5821.0416
32.1634,5820.7811
32.1804,5820.5252
32.1974,5820.2739
32.2144,5820.0275
32.2314,5819.786
32.2484,5819.5497
32.2654,5819.3187
32.2824,5819.0933
32.2994,5818.8736
32.3164,5818.6598
32.3334,5818.4521
32.3504,5818.2508
32.3674,5818.0561
32.3844,5817.8682
32.4014,5817.6874
32.4184,5817.514
32.4354,5817.5616
32.4524,5817.4048
32.4694,5817.2563
32.4864,5817.1164
32.5034,5816.9854
32.5204,5817.6591
32.5374,5818.4492
32.5544,5819.1432
32.5714,5819.8477
32.5884,5820.5631
32.6054,5821.29
32.6224,5822.0289
32.6394,5822.7802
32.6564,5823.5446
32.6734,5824.3226
32.6904,5825.115
32.7074,5825.9223
32.7244,5826.7455
32.7414,5827.5852
32.7584,5828.4423
32.7754,5829.1652
32.7924,5829.9075
32.8094,5830.6703
32.8264,5831.4549
32.8434,5832.2627
32.8604,5833.0951
32.8774,5833.9537
32.8944,5834.8406
32.9114,5835.7577
32.9284,5836.7073
32.9454,5837.6922
32.9624,5838.7151
32.9794,5839.7793
32.9964,5840.8887
33.0134,5842.0475
33.0304,5843.1029
33.0474,5844.2179
33.0644,5845.3983
33.0814,5846.651
33.0984,5847.9838
33.1154,5849.4052
33.1324,5850.9251
33.1494,5852.5541
33.1664,5854.3046
33.1834,5856.1898
33.2004,5858.2248
33.2174,5860.426
33.2344,5862.8116
33.2514,5865.4014
33.2684,5868.217
33.2854,5871.1196
33.3024,5874.2967
33.3194,5877.7753
33.3364,5881.5842
33.3534,5885.754
33.3704,5890.3166
33.3874,5895.3054
33.4044,5900.7551
33.4214,5906.701
33.4384,5913.1791
33.4554,5920.2256
33.4724,5927.8761
33.4894,5936.1658
33.5064,5945.1283
33.5234,5954.7955
33.5404,5965.0316
33.5574,5976.0275
33.5744,5987.8051
33.5914,6000.3817
33.6084,6013.769
33.6254,6027.9725
33.6424,6042.9905
33.6594,6058.8132
33.6764,6074.4718
33.6934,6091.8424
33.7104,6109.9304
33.7274,6128.684
33.7444,6147.5631
33.7614,6167.4402
33.7784,6187.7427
33.7954,6208.3583
33.8124,6229.1569
33.8294,6249.9901
33.8464,6270.6912
33.8634,6291.0754
33.8804,6310.9416
33.8974,6330.0746
33.9144,6348.2488
33.9314,6365.2325
33.9484,6380.7933
33.9654,6394.7045
33.9824,6406.7517
33.9994,6416.7403
34.0164,6424.5022
34.0334,6429.9029
34.0504,6432.6821
34.0674,6432.9523
34.0844,6430.7071
34.1014,6425.9856
34.1184,6418.8712
34.1354,6409.4875
34.1524,6397.9928
34.1694,6384.5739
34.1864,6369.4384
34.2034,6352.808
34.2204,6334.9106
34.2374,6315.9744
34.2544,6296.2222
34.2714,6275.8665
34.2884,6255.1068
34.3054,6233.9591
34.3224,6212.7575
34.3394,6191.6509
34.3564,6170.7705
34.3734,6150.2307
34.3904,6130.1297
34.4074,6110.5503
34.4244,6091.5615
34.4414,6073.2195
34.4584,6055.5684
34.4754,6038.6419
34.4924,6022.4639
34.5094,6007.0497
34.5264,5992.4067
34.5434,5978.5352
34.5604,5965.2618
34.5774,5952.743
34.5944,5940.963
34.6114,5929.9017
34.6284,5919.5357
34.6454,5909.839
34.6624,5900.7829
34.6794,5892.3374
34.6964,5884.471
34.7134,5877.1518
34.7304,5870.347
34.7474,5864.0244
34.7644,5858.1518
34.7814,5852.6978
34.7984,5847.6317
34.8154,5842.7605
34.8324,5838.2196
34.8494,5833.9822
34.8664,5830.0228
34.8834,5826.3178
34.9004,5822.8449
34.9174,5819.5837
34.9344,5816.515
34.9514,5813.6216
34.9684,5810.8876
34.9854,5808.2986
35.0024,5805.8418
35.0194,5803.5054
35.0364,5801.2794
35.0534,5799.1546
35.0704,5796.9674
35.0874,5794.8673
35.1044,5792.8471
35.1214,5790.9023
35.1384,5789.0288
35.1554,5787.2233
35.1724,5785.4831
35.1894,5783.806
35.2064,5782.1909
35.2234,5780.6359
35.2404,5779.1408
35.2574,5777.7052
35.2744,5776.3291
35.2914,5775.0127
35.3084,5773.7562
35.3254,5773.1252
35.3424,5772.5547
35.3594,5772.0449
35.3764,5771.5959
35.3934,5771.2073
35.4104,5770.8787
35.4274,5770.6089
35.4444,5770.3966
35.4614,5770.2396
35.4784,5770.1351
35.4954,5770.0797
35.5124,5770.069
35.5294,5770.0974
35.5464,5770.1586
35.5634,5770.2448
35.5804,5770.1706
35.5974,5770.1021
35.6144,5770.0274
35.6314,5769.9333
35.6484,5769.8056
35.6654,5769.6292
35.6824,5769.3885
35.6994,5769.1224
35.7164,5768.7087
35.7334,5768.1888
35.7504,5767.5524
35.7674,5766.7927
35.7844,5765.906
35.8014,5764.8924
35.8184,5763.7824
35.8354,5762.5287
35.8524,5761.1675
35.8694,5759.7105
35.8864,5758.1707
35.9034,5756.562
35.9204,5754.8987
35.9374,5753.1949
35.9544,5751.4639
35.9714,5749.7182
35.9884,5747.9691
36.0054,5746.2266
36.0224,5744.4994
36.0394,5742.7949
36.0564,5741.1192
36.0734,5739.4774
36.0904,5738.1711
36.1074,5736.9058
36.1244,5735.6836
36.1414,5734.5059
36.1584,5733.3736
36.1754,5732.2868
36.1924,5731.2452
36.2094,5730.2479
36.2264,5729.2938
36.2434,5728.3814
36.2604,5727.5091
36.2774,5726.7445
36.2944,5725.9465
36.3114,5725.1825
36.3284,5724.4501
36.3454,5723.7471
36.3624,5723.0714
36.3794,5722.4209
36.3964,5721.8284
36.4134,5721.2224
36.4304,5720.6356
36.4474,5720.0665
36.4644,5719.5134
36.4814,5718.9748
36.4984,5718.4495
36.5154,5717.9362
36.5324,5717.4339
36.5494,5716.9415
36.5664,5716.4583
36.5834,5715.9834
36.6004,5715.4565
36.6174,5714.9368
36.6344,5714.4236
36.6514,5713.9166
36.6684,5713.4155
36.6854,5712.9199
36.7024,5712.4294
36.7194,5711.944
36.7364,5711.4634
36.7534,5710.9874
36.7704,5710.5159
36.7874,5710.0487
36.8044,5709.5859
36.8214,5709.1273
36.8384,5708.6728
36.8554,5708.2225
36.8724,5707.7763
36.8894,5707.3342
36.9064,5706.8961
36.9234,5706.4622
36.9404,5706.0323
36.9574,5705.6066
36.9744,5705.1851
36.9914,5704.7678
37.0084,5704.3547
37.0254,5703.9461
37.0424,5703.5418
37.0594,5703.1421
37.0764,5702.747
37.0934,5702.3567
37.1104,5701.8034
37.1274,5701.2551
37.1444,5700.712
37.1614,5700.1743
37.1784,5699.6423
37.1954,5699.1162
37.2124,5698.5962
37.2294,5698.0827
37.2464,5697.576
37.2634,5697.0766
37.2804,5696.5849
37.2974,5696.1013
37.3144,5695.6265
37.3314,5695.1611
37.3484,5694.7059
37.3654,5695.6974
37.3824,5696.7008
37.3994,5697.717
37.4164,5698.7473
37.4334,5699.793
37.4504,5700.8553
37.4674,5701.936
37.4844,5703.0367
37.5014,5704.1594
37.5184,5705.3061
37.5354,5706.4792
37.5524,5707.6812
37.5694,5708.9147
37.5864,5710.1826
37.6034,5711.4882
37.6204,5712.6777
37.6374,5713.9116
37.6544,5715.1937
37.6714,5716.5277
37.6884,5717.9177
37.7054,5719.3679
37.7224,5720.8824
37.7394,5722.4656
37.7564,5724.1218
37.7734,5725.8552
37.7904,5727.67
37.8074,5729.5703
37.8244,5731.5598
37.8414,5733.6421
37.8584,5735.8205
37.8754,5737.9304
37.8924,5740.1415
37.9094,5742.4552
37.9264,5744.8727
37.9434,5747.3942
37.9604,5750.0192
37.9774,5752.746
37.9944,5755.5723
38.0114,5758.4942
38.0284,5761.5069
38.0454,5764.6041
38.0624,5767.7779
38.0794,5771.019
38.0964,5774.3162
38.1134,5777.6563
38.1304,5780.8483
38.1474,5784.0512
38.1644,5787.2457
38.1814,5790.4178
38.1984,5793.5302
38.2154,5796.565
38.2324,5799.4965
38.2494,5802.2981
38.2664,5804.9435
38.2834,5807.4078
38.3004,5809.6716
38.3174,5811.7081
38.3344,5813.5056
38.3514,5815.054
38.3684,5816.349
38.3854,5817.213
38.4024,5817.8343
38.4194,5818.2278
38.4364,5818.4141
38.4534,5818.4194
38.4704,5818.2742
38.4874,5818.0128
38.5044,5817.672
38.5214,5817.2905
38.5384,5816.9079
38.5554,5816.564
38.5724,5816.298
38.5894,5816.148
38.6064,5816.1506
38.6234,5816.3405
38.6404,5816.7503
38.6574,5817.4103
38.6744,5818.3484
38.6914,5819.5898
38.7084,5821.1573
38.7254,5823.0708
38.7424,5825.3473
38.7594,5828.001
38.7764,5831.0428
38.7934,5834.4806
38.8104,5838.3188
38.8274,5842.5582
38.8444,5847.1958
38.8614,5852.2247
38.8784,5857.6338
38.8954,5863.2278
38.9124,5869.1658
38.9294,5875.4224
38.9464,5881.9667
38.9634,5888.7619
38.9804,5895.7649
38.9974,5902.9264
39.0144,5910.1899
39.0314,5917.492
39.0484,5924.7619
39.0654,5931.9221
39.0824,5938.8887
39.0994,5945.5721
39.1164,5951.879
39.1334,5957.7139
39.1504,5962.7987
39.1674,5967.2251
39.1844,5970.9084
39.2014,5973.7735
39.2184,5975.7585
39.2354,5976.8167
39.2524,5976.9191
39.2694,5976.0548
39.2864,5974.2318
39.3034,5971.4756
39.3204,5967.8284
39.3374,5963.3465
39.3544,5958.0982
39.3714,5952.1605
39.3884,5945.617
39.4054,5938.3731
39.4224,5930.6979
39.4394,5922.6777
39.4564,5914.3957
39.4734,5905.9307
39.4904,5897.3557
39.5074,5888.7375
39.5244,5880.1364
39.5414,5871.5548
39.5584,5863.1426
39.5754,5854.889
39.5924,5846.829
39.6094,5838.9922
39.6264,5831.3771
39.6434,5824.0548
39.6604,5816.8456
39.6774,5809.93
39.6944,5803.3159
39.7114,5797.0076
39.7284,5791.0068
39.7454,5785.3124
39.7624,5779.9212
39.7794,5774.8277
39.7964,5770.0248
39.8134,5765.5038
39.8304,5761.2548
39.8474,5757.2669
39.8644,5753.5283
39.8814,5750.0267
39.8984,5746.7494
39.9154,5743.5361
39.9324,5740.5213
39.9494,5737.6918
39.9664,5735.0352
39.9834,5732.5389
40.0004,5730.1911
40.0174,5727.9803
40.0344,5725.8955
40.0514,5723.9264
40.0684,5722.0634
40.0854,5720.2972
40.1024,5718.6195
40.1194,5717.0226
40.1364,5715.4991
40.1534,5714.0427
40.1704,5712.7981
40.1874,5711.6092
40.2044,5710.471
40.2214,5709.3793
40.2384,5708.3301
40.2554,5707.3199
40.2724,5706.3458
40.2894,5705.4049
40.3064,5704.4949
40.3234,5703.6138
40.3404,5702.7598
40.3574,5701.9314
40.3744,5701.1272
40.3914,5700.3462
40.4084,5699.5876
40.4254,5698.7324
40.4424,5697.8983
40.4594,5697.085
40.4764,5696.2923
40.4934,5695.5203
40.5104,5694.7691
40.5274,5694.0392
40.5444,5693.3311
40.5614,5692.6455
40.5784,5691.9835
40.5954,5691.3464
40.6124,5690.7357
40.6294,5690.1533
40.6464,5689.6015
40.6634,5689.0828
40.6804,5688.6004
40.6974,5688.1578
40.7144,5687.7589
40.7314,5687.4083
40.7484,5687.1108
40.7654,5686.8718
40.7824,5686.6969
40.7994,5686.5919
40.8164,5686.563
40.8334,5686.6162
40.8504,5686.2681
40.8674,5686.5059
40.8844,5686.8432
40.9014,5687.285
40.9184,5687.8356
40.9354,5688.1353
40.9524,5688.7959
40.9694,5689.5725
40.9864,5690.465
41.0034,5691.4718
41.0204,5692.5893
41.0374,5693.8121
41.0544,5695.1325
41.0714,5696.5403
41.0884,5698.0225
41.1054,5699.5629
41.1224,5701.1421
41.1394,5702.7371
41.1564,5704.3209
41.1734,5705.8631
41.1904,5708.5496
41.2074,5711.1234
41.2244,5713.5454
41.2414,5715.7758
41.2584,5717.7758
41.2754,5719.5094
41.2924,5720.9456
41.3094,5722.0597
41.3264,5722.835
41.3434,5723.2635
41.3604,5723.326
41.3774,5723.0717
41.3944,5722.4974
41.4114,5721.6263
41.4284,5720.4871
41.4454,5718.993
41.4624,5717.3087
41.4794,5715.4606
41.4964,5713.485
41.5134,5711.4175
41.5304,5709.2913
41.5474,5707.1373
41.5644,5704.983
41.5814,5702.8528
41.5984,5700.7677
41.6154,5698.7455
41.6324,5696.8007
41.6494,5694.9452
41.6664,5693.188
41.6834,5691.5361
41.7004,5689.8861
41.7174,5688.3488
41.7344,5686.9254
41.7514,5685.6156
41.7684,5684.418
41.7854,5683.3299
41.8024,5682.348
41.8194,5681.4681
41.8364,5680.6857
41.8534,5679.9955
41.8704,5679.3923
41.8874,5678.8706
41.9044,5678.425
41.9214,5678.0498
41.9384,5677.74
41.9554,5677.364
41.9724,5677.0434
41.9894,5676.7736
42.0064,5676.5505
42.0234,5676.3703
42.0404,5676.2295
42.0574,5676.1252
42.0744,5676.0549
42.0914,5676.0163
42.1084,5676.0076
42.1254,5676.0275
42.1424,5676.0749
42.1594,5676.1492
42.1764,5676.2501
42.1934,5676.3776
42.2104,5676.3817
42.2274,5676.4137
42.2444,5676.4745
42.2614,5676.5655
42.2784,5676.6885
42.2954,5676.8454
42.3124,5677.0385
42.3294,5677.2703
42.3464,5677.5437
42.3634,5677.8616
42.3804,5678.2274
42.3974,5678.6446
42.4144,5679.1169
42.4314,5679.6481
42.4484,5680.2422
42.4654,5680.7379
42.4824,5681.3047
42.4994,5681.9467
42.5164,5682.6678
42.5334,5683.4721
42.5504,5684.3631
42.5674,5685.3445
42.5844,5686.4193
42.6014,5687.5902
42.6184,5688.8596
42.6354,5690.229
42.6524,5691.6996
42.6694,5693.2715
42.6864,5694.9443
42.7034,5696.7163
42.7204,5698.5851
42.7374,5700.5469
42.7544,5702.5967
42.7714,5704.728
42.7884,5706.933
42.8054,5709.2021
42.8224,5711.5237
42.8394,5713.8844
42.8564,5716.2688
42.8734,5718.6592
42.8904,5721.0354
42.9074,5723.3752
42.9244,5725.6543
42.9414,5727.8461
42.9584,5729.9226
42.9754,5731.6895
42.9924,5733.2827
43.0094,5734.6731
43.0264,5735.8335
43.0434,5736.7387
43.0604,5737.3673
43.0774,5737.7023
43.0944,5737.7315
43.1114,5737.4487
43.1284,5736.8531
43.1454,5735.9498
43.1624,5734.7492
43.1794,5733.2667
43.1964,5731.5218
43.2134,5729.5377
43.2304,5727.16
43.2474,5724.5964
43.2644,5721.8754
43.2814,5719.0258
43.2984,5716.0761
43.3154,5713.0535
43.3324,5709.9841
43.3494,5706.892
43.3664,5703.7993
43.3834,5700.7259
43.4004,5697.6897
43.4174,5694.7062
43.4344,5691.7888
43.4514,5688.9487
43.4684,5686.1953
43.4854,5683.351
43.5024,5680.6066
43.5194,5677.9661
43.5364,5675.432
43.5534,5673.0051
43.5704,5670.6851
43.5874,5668.47
43.6044,5666.3567
43.6214,5664.3408
43.6384,5662.4168
43.6554,5660.5782
43.6724,5658.8175
43.6894,5657.1266
43.7064,5655.4967
43.7234,5653.919
43.7404,5652.2197
43.7574,5650.5554
43.7744,5648.9184
43.7914,5647.3018
43.8084,5645.6999
43.8254,5644.1082
43.8424,5642.5233
43.8594,5640.9431
43.8764,5639.3662
43.8934,5637.7924
43.9104,5636.2222
43.9274,5634.6566
43.9444,5633.0972
43.9614,5631.5459
43.9784,5630.0047
43.9954,5629.4524
44.0124,5628.9143
44.0294,5628.3922
44.0464,5627.8877
44.0634,5627.4024
44.0804,5626.9371
44.0974,5626.4928
44.1144,5626.0701
44.1314,5625.6692
44.1484,5625.2904
44.1654,5624.9334
44.1824,5624.5982
44.1994,5624.2842
44.2164,5623.991
44.2334,5623.718
44.2504,5623.3632
44.2674,5623.0271
44.2844,5622.7087
44.3014,5622.4071
44.3184,5622.1215
44.3354,5621.8507
44.3524,5621.594
44.3694,5621.3503
44.3864,5621.1187
44.4034,5620.8983
44.4204,5620.6883
44.4374,5620.4878
44.4544,5620.2959
44.4714,5620.1121
44.4884,5619.9881
44.5054,5619.8186
44.5224,5619.655
44.5394,5619.4971
44.5564,5619.3441
44.5734,5619.1958
44.5904,5619.0516
44.6074,5618.9112
44.6244,5618.8007
44.6414,5618.6672
44.6584,5618.5367
44.6754,5618.4089
44.6924,5618.2836
44.7094,5618.1607
44.7264,5618.0399
44.7434,5617.9211
44.7604,5617.7032
44.7774,5617.487
44.7944,5617.2725
44.8114,5617.0596
44.8284,5616.8481
44.8454,5616.6381
44.8624,5616.4295
44.8794,5616.2221
44.8964,5616.0159
44.9134,5615.8109
44.9304,5615.607
44.9474,5615.4042
44.9644,5615.2025
44.9814,5615.0017
44.9984,5614.8018
45.0154,5614.5164
45.0324,5614.2318
45.0494,5613.948
45.0664,5613.6651
45.0834,5613.3829
45.1004,5613.1015
45.1174,5612.8208
45.1344,5612.5409
45.1514,5612.1947
45.1684,5611.9164
45.1854,5611.6387
45.2024,5611.3617
45.2194,5611.0852
45.2364,5610.8093
45.2534,5610.5005
45.2704,5610.2259
45.2874,5609.9518
45.3044,5609.6781
45.3214,5609.405
45.3384,5609.1323
45.3554,5608.8601
45.3724,5608.5884
45.3894,5608.9083
45.4064,5608.6403
45.4234,5608.3728
45.4404,5608.1057
45.4574,5607.839
45.4744,5607.5727
45.4914,5607.3068
45.5084,5607.0413
45.5254,5608.2103
45.5424,5609.0859
45.5594,5609.9618
45.5764,5610.8381
45.5934,5611.7147
45.6104,5612.5917
45.6274,5613.4689
45.6444,5614.3465
45.6614,5615.2245
45.6784,5616.1027
45.6954,5616.9812
45.7124,5617.8601
45.7294,5618.7392
45.7464,5619.6186
45.7634,5620.4983
45.7804,5621.2108
45.7974,5621.9236
45.8144,5622.6367
45.8314,5623.35
45.8484,5624.0636
45.8654,5624.7774
45.8824,5625.4915
45.8994,5626.2058
45.9164,5626.9204
45.9334,5627.6352
45.9504,5628.3502
45.9674,5629.0655
45.9844,5629.781
46.0014,5630.4967
46.0184,5631.0
46.0354,5631.5285
46.0524,5632.0571
46.0694,5632.586
46.0864,5633.1151
46.1034,5633.6444
46.1204,5634.0675
46.1374,5634.5977
46.1544,5635.1281
46.1714,5635.6587
46.1884,5636.1895
46.2054,5636.7204
46.2224,5637.2516
46.2394,5637.7829
46.2564,5638.3144
46.2734,5638.8461
46.2904,5639.2311
46.3074,5639.6154
46.3244,5640.0008
46.3414,5640.3863
46.3584,5640.7719
46.3754,5641.1578
46.3924,5641.5438
46.4094,5641.9296
46.4264,5642.316
46.4434,5642.7025
46.4604,5643.0892
46.4774,5643.4761
46.4944,5643.8631
46.5114,5644.2503
46.5284,5644.6377
46.5454,5644.8786
46.5624,5645.1196
46.5794,5645.3608
46.5964,5645.6021
46.6134,5645.8437
46.6304,5646.0854
46.6474,5646.3272
46.6644,5646.5693
46.6814,5646.8115
46.6984,5647.0538
46.7154,5647.2964
46.7324,5647.5391
46.7494,5647.782
46.7664,5648.025
46.7834,5648.2682
46.8004,5648.3771
46.8174,5648.4862
46.8344,5648.5955
46.8514,5648.7049
46.8684,5648.8145
46.8854,5648.9243
46.9024,5649.0342
46.9194,5649.0905
46.9364,5649.2011
46.9534,5649.3119
46.9704,5649.4229
46.9874,5649.534
47.0044,5649.6454
47.0214,5649.7299
47.0384,5649.8418
47.0554,5649.8163
47.0724,5649.7911
47.0894,5649.766
47.1064,5649.7412
47.1234,5649.7165
47.1404,5649.692
47.1574,5649.6677
47.1744,5649.6436
47.1914,5649.6197
47.2084,5649.596
47.2254,5649.5725
47.2424,5649.5492
47.2594,5649.5261
47.2764,5649.5032
47.2934,5649.4805
47.3104,5649.3137
47.3274,5649.1472
47.3444,5648.9809
47.3614,5648.8147
47.3784,5648.6489
47.3954,5648.4832
47.4124,5648.3178
47.4294,5648.1526
47.4464,5647.9876
47.4634,5647.8229
47.4804,5647.6584
47.4974,5647.4942
47.5144,5647.3302
47.5314,5647.1665
47.5484,5647.003
47.5654,5646.8398
47.5824,5646.6769
47.5994,5646.5142
47.6164,5646.3519
47.6334,5646.1898
47.6504,5646.0279
47.6674,5645.8664
47.6844,5645.7052
47.7014,5645.5443
47.7184,5645.3836
47.7354,5645.2233
47.7524,5645.0633
47.7694,5644.9037
47.7864,5644.7443
47.8034,5644.5853
47.8204,5644.2823
47.8374,5643.9797
47.8544,5643.6774
47.8714,5643.3755
47.8884,5643.074
47.9054,5642.7728
47.9224,5642.4721
47.9394,5642.1717
47.9564,5641.8717
47.9734,5641.5721
47.9904,5641.273
48.0074,5640.9742
48.0244,5640.6759
48.0414,5640.3781
48.0584,5640.0807
48.0754,5639.6326
48.0924,5639.1851
48.1094,5638.738
48.1264,5638.2914
48.1434,5637.8453
48.1604,5637.3997
48.1774,5636.9547
48.1944,5636.5102
48.2114,5636.0663
48.2284,5635.623
48.2454,5635.1803
48.2624,5634.7381
48.2794,5634.2966
48.2964,5633.8558
48.3134,5633.4156
48.3304,5632.8142
48.3474,5632.2136
48.3644,5631.6137
48.3814,5631.0145
48.3984,5630.4161
48.4154,5629.8185
48.4324,5629.2216
48.4494,5628.6256
48.4664,5628.0304
48.4834,5627.4361
48.5004,5626.8427
48.5174,5626.2502
48.5344,5625.8268
48.5514,5625.2371
48.5684,5624.6484
48.5854,5623.896
48.6024,5623.1446
48.6194,5622.3944
48.6364,5621.6453
48.6534,5620.8974
48.6704,5620.1508
48.6874,5619.4897
48.7044,5618.7461
48.7214,5618.0039
48.7384,5617.2632
48.7554,5616.5239
48.7724,5615.7863
48.7894,5615.0502
48.8064,5614.3158
48.8234,5613.5831
48.8404,5613.8138
48.8574,5614.0463
48.8744,5614.2809
48.8914,5614.5174
48.9084,5614.7562
48.9254,5614.9971
48.9424,5615.2404
48.9594,5615.4862
48.9764,5615.7345
48.9934,5615.9855
49.0104,5616.2393
49.0274,5616.4961
49.0444,5616.7561
49.0614,5617.0194
49.0784,5617.2863
49.0954,5618.2156
49.1124,5619.149
49.1294,5620.0866
49.1464,5621.0289
49.1634,5621.9762
49.1804,5622.9289
49.1974,5623.8875
49.2144,5624.8525
49.2314,5625.8246
49.2484,5626.8045
49.2654,5627.7931
49.2824,5628.7912
49.2994,5629.8001
49.3164,5630.8209
49.3334,5631.8552
49.3504,5632.9046
49.3674,5633.971
49.3844,5635.0493
49.4014,5636.1563
49.4184,5637.2874
49.4354,5638.4457
49.4524,5639.6344
49.4694,5640.857
49.4864,5642.1177
49.5034,5643.4169
49.5204,5644.7665
49.5374,5646.1675
49.5544,5647.6252
49.5714,5649.1447
49.5884,5650.7315
49.6054,5652.2765
49.6224,5653.8997
49.6394,5655.6682
49.6564,5657.4642
49.6734,5659.3539
49.6904,5661.3416
49.7074,5663.4311
49.7244,5665.6256
49.7414,5667.9272
49.7584,5670.3369
49.7754,5672.8548
49.7924,5675.5099
49.8094,5678.2377
49.8264,5681.0638
49.8434,5683.9811
49.8604,5687.2961
49.8774,5690.6113
49.8944,5694.0509
49.9114,5697.527
49.9284,5701.0181
49.9454,5704.4991
49.9624,5707.9416
49.9794,5711.3139
49.9964,5714.547
50.0134,5717.6744
50.0304,5720.625
50.0474,5723.3635
50.0644,5725.8578
50.0814,5728.0804
50.0984,5730.0101
50.1154,5731.4875
50.1324,5732.6511
50.1494,5733.5014
50.1664,5734.0459
50.1834,5734.2979
50.2004,5734.2759
50.2174,5734.0023
50.2344,5733.5031
50.2514,5732.8066
50.2684,5731.9433
50.2854,5730.9443
50.3024,5729.8413
50.3194,5728.665
50.3364,5727.4451
50.3534,5726.2087
50.3704,5724.8404
50.3874,5723.5027
50.4044,5722.2146
50.4214,5720.9923
50.4384,5719.849
50.4554,5718.7956
50.4724,5717.8404
50.4894,5716.9893
50.5064,5716.2467
50.5234,5715.615
50.5404,5715.0952
50.5574,5714.6868
50.5744,5714.3886
50.5914,5714.1981
50.6084,5714.1122
50.6254,5713.9864
50.6424,5713.9574
50.6594,5714.0206
50.6764,5714.1713
50.6934,5714.4046
50.7104,5714.7158
50.7274,5715.1
50.7444,5715.5527
50.7614,5716.0752
50.7784,5716.6518
50.7954,5717.2845
50.8124,5717.9697
50.8294,5718.7042
50.8464,5719.4851
50.8634,5720.31
50.8804,5721.0317
50.8974,5721.7936
50.9144,5722.597
50.9314,5723.4351
50.9484,5724.3102
50.9654,5725.2218
50.9824,5726.17
50.9994,5727.155
51.0164,5728.1775
51.0334,5729.2385
51.0504,5730.3395
51.0674,5731.4821
51.0844,5732.6685
51.1014,5733.9014
51.1184,5735.1839
51.1354,5736.3678
51.1524,5737.6091
51.1694,5739.0117
51.1864,5740.3831
51.2034,5741.8282
51.2204,5743.3542
51.2374,5744.9689
51.2544,5746.6814
51.2714,5748.5016
51.2884,5750.4407
51.3054,5752.5113
51.3224,5754.7766
51.3394,5757.153
51.3564,5759.7065
51.3734,5762.4557
51.3904,5765.4202
51.4074,5768.622
51.4244,5772.0843
51.4414,5775.8322
51.4584,5779.8925
51.4754,5784.2936
51.4924,5789.0654
51.5094,5794.2393
51.5264,5799.848
51.5434,5805.9251
51.5604,5812.5052
51.5774,5819.6231
51.5944,5827.314
51.6114,5835.6128
51.6284,5844.5539
51.6454,5854.0186
51.6624,5864.19
51.6794,5875.0974
51.6964,5886.7671
51.7134,5899.2221
51.7304,5912.4812
51.7474,5926.5585
51.7644,5941.4623
51.7814,5957.1949
51.7984,5973.7513
51.8154,5991.1186
51.8324,6009.2752
51.8494,6028.1895
51.8664,6047.8195
51.8834,6068.1108
51.9004,6088.8381
51.9174,6110.0785
51.9344,6131.7352
51.9514,6153.6948
51.9684,6175.8265
51.9854,6197.9808
52.0024,6219.9897
52.0194,6241.6663
52.0364,6262.8067
52.0534,6283.1915
52.0704,6302.59
52.0874,6320.7642
52.1044,6337.4756
52.1214,6352.5194
52.1384,6365.6238
52.1554,6376.4529
52.1724,6385.0082
52.1894,6391.1597
52.2064,6394.8171
52.2234,6395.9327
52.2404,6394.5013
52.2574,6390.5587
52.2744,6384.1792
52.2914,6375.4847
52.3084,6364.5867
52.3254,6351.6621
52.3424,6336.8951
52.3594,6320.485
52.3764,6302.6416
52.3934,6283.5805
52.4104,6263.3409
52.4274,6242.3129
52.4444,6220.7022
52.4614,6198.7037
52.4784,6176.4993
52.4954,6154.2559
52.5124,6132.1244
52.5294,6110.2392
52.5464,6088.7182
52.5634,6067.6636
52.5804,6047.1621
52.5974,6027.2862
52.6144,6008.0951
52.6314,5989.6357
52.6484,5971.9437
52.6654,5954.8582
52.6824,5938.5817
52.6994,5923.1219
52.7164,5908.4792
52.7334,5894.6474
52.7504,5881.6146
52.7674,5869.3639
52.7844,5857.8738
52.8014,5847.1195
52.8184,5837.073
52.8354,5827.7043
52.8524,5818.9812
52.8694,5810.8703
52.8864,5803.3378
52.9034,5796.3489
52.9204,5789.6781
52.9374,5783.4826
52.9544,5777.7292
52.9714,5772.3854
52.9884,5767.42
53.0054,5762.8031
53.0224,5758.5063
53.0394,5754.5027
53.0564,5750.767
53.0734,5747.2754
53.0904,5744.0061
53.1074,5740.9387
53.1244,5738.0545
53.1414,5735.3362
53.1584,5732.7682
53.1754,5730.1481
53.1924,5727.6511
53.2094,5725.2653
53.2264,5722.9804
53.2434,5720.7867
53.2604,5718.6758
53.2774,5716.6402
53.2944,5714.673
53.3114,5712.7683
53.3284,5710.9207
53.3454,5709.1255
53.3624,5707.3784
53.3794,5705.6756
53.3964,5704.0139
53.4134,5702.3903
53.4304,5700.6375
53.4474,5698.9179
53.4644,5697.2293
53.4814,5695.5698
53.4984,5693.9379
53.5154,5692.332
53.5324,5690.7507
53.5494,5689.193
53.5664,5687.6576
53.5834,5686.1435
53.6004,5684.65
53.6174,5683.1761
53.6344,5681.7211
53.6514,5680.2843
53.6684,5678.8652
53.6854,5678.8887
53.7024,5678.9286
53.7194,5678.9847
53.7364,5679.0563
53.7534,5679.1432
53.7704,5679.2448
53.7874,5679.3611
53.8044,5679.4915
53.8214,5679.6359
53.8384,5679.7941
53.8554,5679.9658
53.8724,5680.1508
53.8894,5680.3557
53.9064,5680.5671
53.9234,5680.7916
53.9404,5681.0289
53.9574,5681.2792
53.9744,5681.5425
53.9914,5681.8186
54.0084,5682.1078
54.0254,5682.4101
54.0424,5682.7289
54.0594,5683.0579
54.0764,5683.4005
54.0934,5683.7569
54.1104,5684.1276
54.1274,5684.5129
54.1444,5684.9131
54.1614,5685.3289
54.1784,5685.7608
54.1954,5686.6642
54.2124,5687.5852
54.2294,5688.5246
54.2464,5689.4836
54.2634,5690.4632
54.2804,5691.4649
54.2974,5692.4901
54.3144,5693.5407
54.3314,5694.6187
54.3484,5695.7264
54.3654,5696.8664
54.3824,5698.0416
54.3994,5699.2556
54.4164,5700.5119
54.4334,5701.815
54.4504,5703.0224
54.4674,5704.2867
54.4844,5705.6139
54.5014,5707.0107
54.5184,5708.4845
54.5354,5710.0433
54.5524,5711.6961
54.5694,5713.4526
54.5864,5715.3234
54.6034,5717.3197
54.6204,5719.4538
54.6374,5721.7386
54.6544,5724.188
54.6714,5726.8163
54.6884,5729.6385
54.7054,5732.5004
54.7224,5735.5877
54.7394,5738.9162
54.7564,5742.5021
54.7734,5746.3612
54.7904,5750.5088
54.8074,5754.9595
54.8244,5759.7269
54.8414,5764.8232
54.8584,5770.2589
54.8754,5776.0425
54.8924,5782.18
54.9094,5788.6748
54.9264,5795.5269
54.9434,5802.7325
54.9604,5810.0971
54.9774,5817.795
54.9944,5825.8084
55.0114,5834.1137
55.0284,5842.6811
55.0454,5851.4735
55.0624,5860.4461
55.0794,5869.5458
55.0964,5878.7107
55.1134,5887.8701
55.1304,5896.9444
55.1474,5905.8459
55.1644,5914.4802
55.1814,5922.7481
55.1984,5930.5481
55.2154,5937.5954
55.2324,5943.9778
55.2494,5949.6065
55.2664,5954.4034
55.2834,5958.3028
55.3004,5961.254
55.3174,5963.2218
55.3344,5964.1868
55.3514,5964.1457
55.3684,5963.1106
55.3854,5961.1081
55.4024,5958.1786
55.4194,5954.3743
55.4364,5949.7581
55.4534,5944.4015
55.4704,5938.207
55.4874,5931.4327
55.5044,5924.1637
55.5214,5916.4858
55.5384,5908.4839
55.5554,5900.2401
55.5724,5891.8327
55.5894,5883.3355
55.6064,5874.816
55.6234,5866.3362
55.6404,5857.9509
55.6574,5849.7087
55.6744,5841.6515
55.6914,5833.8149
55.7084,5826.176
55.7254,5818.6963
55.7424,5811.5863
55.7594,5804.7064
55.7764,5798.143
55.7934,5791.902
55.8104,5785.9862
55.8274,5780.3953
55.8444,5775.1002
55.8614,5770.1484
55.8784,5765.5067
55.8954,5761.1666
55.9124,5757.1569
55.9294,5753.3901
55.9464,5749.8928
55.9634,5746.653
55.9804,5743.6579
55.9974,5740.8947
56.0144,5738.3504
56.0314,5736.0119
56.0484,5733.8663
56.0654,5731.9007
56.0824,5730.1026
56.0994,5728.4596
56.1164,5726.9596
56.1334,5725.5908
56.1504,5724.3418
56.1674,5723.2013
56.1844,5722.1584
56.2014,5721.2022
56.2184,5720.3223
56.2354,5719.3411
56.2524,5718.4158
56.2694,5717.5369
56.2864,5716.695
56.3034,5715.8816
56.3204,5715.0887
56.3374,5714.3092
56.3544,5713.5441
56.3714,5712.7746
56.3884,5712.0038
56.4054,5711.2289
56.4224,5710.4482
56.4394,5709.6608
56.4564,5708.8663
56.4734,5708.0652
56.4904,5707.099
56.5074,5706.1283
56.5244,5705.1547
56.5414,5704.1835
56.5584,5703.2101
56.5754,5702.2402
56.5924,5701.2764
56.6094,5700.321
56.6264,5699.3764
56.6434,5698.4448
56.6604,5697.5282
56.6774,5696.6284
56.6944,5695.7469
56.7114,5694.885
56.7284,5694.0437
56.7454,5693.0725
56.7624,5692.1235
56.7794,5691.1973
56.7964,5690.2944
56.8134,5689.4151
56.8304,5688.5598
56.8474,5687.7288
56.8644,5686.9222
56.8814,5686.1405
56.8984,5685.384
56.9154,5684.6532
56.9324,5683.9487
56.9494,5683.2713
56.9664,5682.6219
56.9834,5682.0018
57.0004,5682.7684
57.0174,5683.5673
57.0344,5684.4006
57.0514,5685.2706
57.0684,5686.1801
57.0854,5687.1321
57.1024,5688.1302
57.1194,5689.1784
57.1364,5690.281
57.1534,5691.4429
57.1704,5692.6694
57.1874,5693.9662
57.2044,5695.3394
57.2214,5696.7956
57.2384,5698.3415
57.2554,5699.8344
57.2724,5701.4316
57.2894,5703.1407
57.3064,5704.9695
57.3234,5706.9254
57.3404,5709.016
57.3574,5711.2485
57.3744,5713.6299
57.3914,5716.1663
57.4084,5718.8636
57.4254,5721.7408
57.4424,5724.7731
57.4594,5727.9773
57.4764,5731.3543
57.4934,5734.9036
57.5104,5738.4748
57.5274,5742.211
57.5444,5746.1047
57.5614,5750.1463
57.5784,5754.3228
57.5954,5758.6184
57.6124,5763.0215
57.6294,5767.4959
57.6464,5772.0244
57.6634,5776.5803
57.6804,5781.1356
57.6974,5785.6612
57.7144,5790.1281
57.7314,5794.5074
57.7484,5798.7707
57.7654,5802.8904
57.7824,5806.8392
57.7994,5810.5899
57.8164,5814.1147
57.8334,5817.3856
57.8504,5820.3741
57.8674,5823.0518
57.8844,5825.3914
57.9014,5827.3675
57.9184,5828.9579
57.9354,5830.1448
57.9524,5830.9152
57.9694,5831.2621
57.9864,5831.1844
58.0034,5830.687
58.0204,5829.6323
58.0374,5828.1835
58.0544,5826.3606
58.0714,5824.1869
58.0884,5821.689
58.1054,5818.8958
58.1224,5815.8384
58.1394,5812.5492
58.1564,5809.0616
58.1734,5805.4096
58.1904,5801.7395
58.2074,5797.8607
58.2244,5793.9173
58.2414,5789.9403
58.2584,5785.9586
58.2754,5781.8533
58.2924,5777.7939
58.3094,5773.8018
58.3264,5769.8957
58.3434,5766.0915
58.3604,5762.4028
58.3774,5758.8967
58.3944,5755.4697
58.4114,5752.1845
58.4284,5749.0459
58.4454,5746.057
58.4624,5743.2194
58.4794,5740.5334
58.4964,5737.998
58.5134,5735.6114
58.5304,5733.2209
58.5474,5730.9728
58.5644,5728.8628
58.5814,5726.8861
58.5984,5725.0564
58.6154,5723.3307
58.6324,5721.722
58.6494,5720.2243
58.6664,5718.8316
58.6834,5717.5379
58.7004,5716.3374
58.7174,5715.2241
58.7344,5714.1923
58.7514,5713.2367
58.7684,5712.3611
58.7854,5711.3802
58.8024,5710.4604
58.8194,5709.5972
58.8364,5708.7866
58.8534,5708.0246
58.8704,5707.3079
58.8874,5706.6332
58.9044,5705.9978
58.9214,5705.3991
58.9384,5704.8349
58.9554,5704.3031
58.9724,5703.802
58.9894,5702.7423
59.0064,5702.3014
59.0234,5701.8873
59.0404,5701.3516
59.0574,5700.8411
59.0744,5700.3549
59.0914,5699.8924
59.1084,5699.4531
59.1254,5698.7422
59.1424,5698.3489
59.1594,5697.9769
59.1764,5697.6255
59.1934,5697.2939
59.2104,5696.9811
59.2274,5696.6859
59.2444,5696.407
59.2614,5696.1426
59.2784,5695.8909
59.2954,5696.4269
59.3124,5696.9706
59.3294,5697.519
59.3464,5698.0689
59.3634,5698.6162
59.3804,5699.1569
59.3974,5699.6867
59.4144,5700.201
59.4314,5700.6954
59.4484,5701.1659
59.4654,5701.6087
59.4824,5702.0211
59.4994,5702.401
59.5164,5702.747
59.5334,5703.0589
59.5504,5703.1823
59.5674,5703.2731
59.5844,5703.3328
59.6014,5703.3634
59.6184,5703.3671
59.6354,5703.3464
59.6524,5703.304
59.6694,5703.2429
59.6864,5703.1661
59.7034,5703.0768
59.7204,5702.9784
59.7374,5702.874
59.7544,5702.7669
59.7714,5702.869
59.7884,5702.766
59.8054,5702.5123
59.8224,5702.266
59.8394,5702.0288
59.8564,5701.8022
59.8734,5701.5872
59.8904,5701.3847
59.9074,5701.1953
59.9244,5701.0193
59.9414,5700.857
59.9584,5700.8128
59.9754,5700.678
59.9924,5700.5564
60.0094,5700.4475
60.0264,5700.3511
60.0434,5700.2664
60.0604,5700.193
60.0774,5700.1303
60.0944,5700.0775
60.1114,5700.0342
60.1284,5699.9996
60.1454,5699.9732
60.1624,5699.9543
60.1794,5699.9423
60.1964,5699.9368
60.2134,5699.937
60.2304,5699.9427
60.2474,5699.9533
60.2644,5699.9683
60.2814,5699.9875
60.2984,5700.0104
60.3154,5699.8807
60.3324,5699.7542
60.3494,5699.6306
60.3664,5699.5096
60.3834,5699.3911
60.4004,5699.2749
60.4174,5699.1608
60.4344,5699.0487
60.4514,5698.9385
60.4684,5698.8301
60.4854,5698.7235
60.5024,5698.6184
60.5194,5698.5149
60.5364,5698.4129
60.5534,5698.3125
60.5704,5698.0562
60.5874,5697.8013
60.6044,5697.5479
60.6214,5697.2958
60.6384,5697.045
60.6554,5696.7956
60.6724,5696.5475
60.6894,5696.3008
60.7064,5696.0553
60.7234,5695.8113
60.7404,5695.5685
60.7574,5695.3271
60.7744,5695.0871
60.7914,5694.8484
60.8084,5694.6111
60.8254,5695.3961
60.8424,5696.1825
60.8594,5696.9092
60.8764,5697.6989
60.8934,5698.49
60.9104,5699.2827
60.9274,5700.077
60.9444,5700.8728
60.9614,5701.6703
60.9784,5702.4694
60.9954,5703.2395
61.0124,5704.0423
61.0294,5704.8468
61.0464,5705.6533
61.0634,5706.4616
61.0804,5707.1265
61.0974,5707.7934
61.1144,5708.4624
61.1314,5709.1335
61.1484,5709.8069
61.1654,5710.4827
61.1824,5711.1609
61.1994,5711.8416
61.2164,5712.5249
61.2334,5713.211
61.2504,5713.9026
61.2674,5714.5946
61.2844,5715.2897
61.3014,5715.9881
61.3184,5716.69
61.3354,5717.2468
61.3524,5717.8075
61.3694,5718.3724
61.3864,5718.9416
61.4034,5719.5156
61.4204,5720.0947
61.4374,5720.6805
61.4544,5721.2708
61.4714,5721.8675
61.4884,5722.471
61.5054,5723.0821
61.5224,5723.7013
61.5394,5724.3294
61.5564,5724.9672
61.5734,5725.6158
61.5904,5726.1372
61.6074,5726.6716
61.6244,5727.2203
61.6414,5727.7849
61.6584,5728.367
61.6754,5728.9683
61.6924,5729.591
61.7094,5730.2372
61.7264,5730.9092
61.7434,5731.6097
61.7604,5732.3416
61.7774,5733.1077
61.7944,5733.9115
61.8114,5734.7563
61.8284,5735.6457
61.8454,5736.449
61.8624,5737.3049
61.8794,5738.2174
61.8964,5739.1911
61.9134,5740.2302
61.9304,5741.3392
61.9474,5742.5225
61.9644,5743.779
61.9814,5745.1245
61.9984,5746.5573
62.0154,5748.0816
62.0324,5749.701
62.0494,5751.4188
62.0664,5753.2382
62.0834,5755.1614
62.1004,5757.1903
62.1174,5759.3233
62.1344,5761.3994
62.1514,5763.75
62.1684,5766.2059
62.1854,5768.7644
62.2024,5771.4218
62.2194,5774.173
62.2364,5777.0113
62.2534,5779.9285
62.2704,5782.8309
62.2874,5785.8746
62.3044,5788.9613
62.3214,5792.075
62.3384,5795.1973
62.3554,5798.1729
62.3724,5801.1137
62.3894,5803.9948
62.4064,5806.7899
62.4234,5809.4714
62.4404,5812.0114
62.4574,5814.3821
62.4744,5816.5573
62.4914,5818.513
62.5084,5820.2284
62.5254,5821.6867
62.5424,5822.8757
62.5594,5823.7881
62.5764,5824.4216
62.5934,5824.7783
62.6104,5824.7345
62.6274,5824.4308
62.6444,5823.8805
62.6614,5823.0998
62.6784,5822.1066
62.6954,5820.9209
62.7124,5819.5638
62.7294,5818.0574
62.7464,5816.4247
62.7634,5814.6885
62.7804,5812.8716
62.7974,5810.996
62.8144,5809.0821
62.8314,5807.149
62.8484,5805.2131
62.8654,5803.1571
62.8824,5801.1237
62.8994,5799.121
62.9164,5797.1543
62.9334,5795.2261
62.9504,5793.3364
62.9674,5791.483
62.9844,5789.6622
63.0014,5787.8693
63.0184,5786.0994
63.0354,5784.3478
63.0524,5782.6102
63.0694,5780.8835
63.0864,5779.1783
63.1034,5777.4671
63.1204,5775.6055
63.1374,5773.7499
63.1544,5771.9006
63.1714,5770.0583
63.1884,5768.224
63.2054,5766.3995
63.2224,5764.5871
63.2394,5762.7895
63.2564,5761.0103
63.2734,5759.2533
63.2904,5757.5294
63.3074,5755.8299
63.3244,5754.1655
63.3414,5752.5134
63.3584,5750.9316
63.3754,5749.2028
63.3924,5747.5235
63.4094,5745.8964
63.4264,5744.3235
63.4434,5742.8067
63.4604,5741.3473
63.4774,5739.9463
63.4944,5738.591
63.5114,5737.3088
63.5284,5736.0866
63.5454,5734.9244
63.5624,5733.8221
63.5794,5732.7798
63.5964,5731.7972
63.6134,5730.8741
63.6304,5731.4759
63.6474,5732.137
63.6644,5732.8574
63.6814,5733.637
63.6984,5734.4759
63.7154,5735.3743
63.7324,5736.3321
63.7494,5737.3496
63.7664,5738.4269
63.7834,5739.564
63.8004,5740.761
63.8174,5742.0178
63.8344,5743.3341
63.8514,5744.7094
63.8684,5746.1431
63.8854,5747.6342
63.9024,5749.1811
63.9194,5750.7821
63.9364,5752.4348
63.9534,5754.1363
63.9704,5755.8829
63.9874,5757.6703
64.0044,5759.4933
64.0214,5761.3455
64.0384,5763.2201
64.0554,5765.1087
64.0724,5767.0026
64.0894,5768.8922
64.1064,5770.7676
64.1234,5772.6189
64.1404,5774.3149
64.1574,5775.9699
64.1744,5777.578
64.1914,5779.1357
64.2084,5780.6422
64.2254,5782.0994
64.2424,5783.5119
64.2594,5784.8867
64.2764,5786.2323
64.2934,5787.5589
64.3104,5788.8774
64.3274,5790.1997
64.3444,5791.538
64.3614,5792.9052
64.3784,5794.3148
64.3954,5795.7161
64.4124,5797.1883
64.4294,5798.7463
64.4464,5800.4047
64.4634,5802.178
64.4804,5804.0799
64.4974,5806.1232
64.5144,5808.3192
64.5314,5810.678
64.5484,5813.2077
64.5654,5815.9147
64.5824,5818.8035
64.5994,5821.8765
64.6164,5825.134
64.6334,5828.5743
64.6504,5832.0128
64.6674,5835.6235
64.6844,5839.3972
64.7014,5843.3224
64.7184,5847.3844
64.7354,5851.5659
64.7524,5855.8462
64.7694,5860.1026
64.7864,5864.5057
64.8034,5868.9254
64.8204,5873.3275
64.8374,5877.6745
64.8544,5881.9261
64.8714,5886.04
64.8884,5889.9725
64.9054,5893.534
64.9224,5896.7781
64.9394,5899.7638
64.9564,5902.4054
64.9734,5904.672
64.9904,5906.539
65.0074,5907.9888
65.0244,5909.0111
65.0414,5909.6025
65.0584,5909.7663
65.0754,5909.5113
65.0924,5908.845
65.1094,5907.7988
65.1264,5906.3878
65.1434,5904.6365
65.1604,5902.5723
65.1774,5900.2245
65.1944,5897.6244
65.2114,5894.8049
65.2284,5891.8
65.2454,5888.6441
65.2624,5885.3684
65.2794,5882.0135
65.2964,5878.6086
65.3134,5875.1847
65.3304,5871.7705
65.3474,5868.3926
65.3644,5865.0746
65.3814,5861.8375
65.3984,5858.6998
65.4154,5855.5314
65.4324,5852.4914
65.4494,5849.5909
65.4664,5846.8389
65.4834,5844.2422
65.5004,5841.8065
65.5174,5839.5355
65.5344,5837.4318
65.5514,5835.497
65.5684,5833.7317
65.5854,5832.1356
65.6024,5830.7082
65.6194,5829.4482
65.6364,5828.3543
65.6534,5827.4249
65.6704,5826.5042
65.6874,5825.7453
65.7044,5825.1469
65.7214,5824.7085
65.7384,5824.4297
65.7554,5824.3109
65.7724,5824.3531
65.7894,5824.5578
65.8064,5824.9274
65.8234,5825.4651
65.8404,5826.1749
65.8574,5827.0614
65.8744,5828.1302
65.8914,5829.3875
65.9084,5830.8402
65.9254,5832.3325
65.9424,5834.0358
65.9594,5835.9585
65.9764,5838.1095
65.9934,5840.4975
66.0104,5843.1315
66.0274,5846.0202
66.0444,5849.1719
66.0614,5852.5943
66.0784,5856.2944
66.0954,5860.2781
66.1124,5864.5501
66.1294,5869.1136
66.1464,5873.97
66.1634,5879.1187
66.1804,5884.3729
66.1974,5889.9109
66.2144,5895.7243
66.2314,5901.8014
66.2484,5908.1268
66.2654,5914.6811
66.2824,5921.4403
66.2994,5928.3756
66.3164,5935.4531
66.3334,5942.6329
66.3504,5949.8691
66.3674,5957.1099
66.3844,5964.2969
66.4014,5971.3658
66.4184,5978.2471
66.4354,5984.7234
66.4524,5990.861
66.4694,5996.5818
66.4864,6001.8091
66.5034,6006.47
66.5204,6010.4979
66.5374,6013.8352
66.5544,6016.4354
66.5714,6018.2641
66.5884,6019.2999
66.6054,6019.5343
66.6224,6018.9706
66.6394,6017.6227
66.6564,6015.5137
66.6734,6012.6739
66.6904,6008.997
66.7074,6004.6675
66.7244,5999.7312
66.7414,5994.238
66.7584,5988.2407
66.7754,5981.7955
66.7924,5974.9605
66.8094,5967.7961
66.8264,5960.3629
66.8434,5952.7217
66.8604,5944.932
66.8774,5937.0509
66.8944,5929.1326
66.9114,5921.2272
66.9284,5913.3804
66.9454,5905.6332
66.9624,5898.0215
66.9794,5890.5765
66.9964,5883.3244
67.0134,5876.287
67.0304,5869.4818
67.0474,5862.9226
67.0644,5856.6197
67.0814,5850.5802
67.0984,5844.8083
67.1154,5839.306
67.1324,5834.0727
67.1494,5829.1059
67.1664,5824.4016
67.1834,5819.9538
67.2004,5815.6125
67.2174,5811.5125
67.2344,5807.6445
67.2514,5803.9988
67.2684,5800.5648
67.2854,5797.3317
67.3024,5794.2886
67.3194,5791.4241
67.3364,5788.7272
67.3534,5786.1869
67.3704,5783.7924
67.3874,5781.5333
67.4044,5779.3993
67.4214,5777.3808
67.4384,5775.4687
67.4554,5774.1628
67.4724,5772.9463
67.4894,5771.8113
67.5064,5770.7508
67.5234,5769.758
67.5404,5768.8268
67.5574,5767.9515
67.5744,5767.127
67.5914,5766.3484
67.6084,5765.6114
67.6254,5764.9122
67.6424,5764.2473
67.6594,5763.6134
67.6764,5763.0076
67.6934,5762.4274
67.7104,5761.8706
67.7274,5761.3349
67.7444,5760.8187
67.7614,5760.3203
67.7784,5759.8382
67.7954,5759.371
67.8124,5758.9178
67.8294,5758.4773
67.8464,5758.0488
67.8634,5757.6313
67.8804,5757.2242
67.8974,5756.8267
67.9144,5756.4383
67.9314,5756.0584
67.9484,5755.6865
67.9654,5755.1347
67.9824,5754.5901
67.9994,5754.0523
68.0164,5753.521
68.0334,5752.9959
68.0504,5752.4766
68.0674,5751.963
68.0844,5751.4548
68.1014,5750.9516
68.1184,5750.4534
68.1354,5749.96
68.1524,5749.471
68.1694,5748.9864
68.1864,5748.5061
68.2034,5748.0297
68.2204,5747.4394
68.2374,5746.8529
68.2544,5746.27
68.2714,5745.6905
68.2884,5745.1145
68.3054,5744.5417
68.3224,5743.972
68.3394,5743.4054
68.3564,5742.8417
68.3734,5742.2809
68.3904,5741.7229
68.4074,5741.1676
68.4244,5740.6149
68.4414,5740.0648
68.4584,5739.5171
68.4754,5738.9719
68.4924,5738.429
68.5094,5737.8884
68.5264,5737.3501
68.5434,5736.814
68.5604,5736.2801
68.5774,5735.7483
68.5944,5735.2186
68.6114,5734.6909
68.6284,5734.1653
68.6454,5733.6274
68.6624,5733.1058
68.6794,5732.5863
68.6964,5732.0686
68.7134,5731.553
68.7304,5730.8988
68.7474,5730.2466
68.7644,5729.5964
68.7814,5728.9482
68.7984,5728.3021
68.8154,5727.6508
68.8324,5727.009
68.8494,5726.3693
68.8664,5725.7319
68.8834,5725.0969
68.9004,5724.4644
68.9174,5723.8345
68.9344,5723.2074
68.9514,5722.5832
68.9684,5721.9621
68.9854,5722.7489
69.0024,5723.5393
69.0194,5724.3335
69.0364,5725.1319
69.0534,5725.9348
69.0704,5726.7426
69.0874,5727.5556
69.1044,5728.3743
69.1214,5729.1992
69.1384,5730.0308
69.1554,5730.8696
69.1724,5731.7162
69.1894,5732.5712
69.2064,5733.4353
69.2234,5734.3091
69.2404,5735.1933
69.2574,5736.0887
69.2744,5736.9958
69.2914,5737.9156
69.3084,5738.8486
69.3254,5739.7188
69.3424,5740.6808
69.3594,5741.6581
69.3764,5742.6513
69.3934,5743.661
69.4104,5744.6877
69.4274,5745.7316
69.4444,5746.7932
69.4614,5747.8726
69.4784,5748.9699
69.4954,5751.3632
69.5124,5753.7358
69.5294,5756.164
69.5464,5758.6086
69.5634,5761.069
69.5804,5763.5439
69.5974,5766.0321
69.6144,5768.5318
69.6314,5771.0411
69.6484,5773.5576
69.6654,5776.0787
69.6824,5778.6012
69.6994,5781.1217
69.7164,5783.6363
69.7334,5786.1408
69.7504,5788.6307
69.7674,5791.1013
69.7844,5793.5478
69.8014,5795.9467
69.8184,5798.3308
69.8354,5800.6772
69.8524,5802.9821
69.8694,5805.2424
69.8864,5807.4558
69.9034,5809.6208
69.9204,5811.7367
69.9374,5813.8036
69.9544,5815.8151
69.9714,5817.7866
69.9884,5817.6328
