2Theta,Intensity
20.0084,7218.0
20.0254,7277.3068
20.0424,7189.7079
20.0594,7425.3287
20.0764,7275.2554
20.0934,7167.0656
20.1104,7385.7056
20.1274,7174.6194
20.1444,7227.3738
20.1614,7199.9596
20.1784,7166.7803
20.1954,7263.6411
20.2124,7151.3551
20.2294,7232.7754
20.2464,7223.534
20.2634,7162.7903
20.2804,7058.3654
20.2974,7052.7488
20.3144,7095.3059
20.3314,7147.0248
20.3484,7208.7331
20.3654,7189.5844
20.3824,7080.9183
20.3994,7069.0131
20.4164,7119.4915
20.4334,7131.9367
20.4504,7060.2305
20.4674,7052.5412
20.4844,7177.9698
20.5014,7209.7309
20.5184,7086.665
20.5354,7144.5606
20.5524,7104.1972
20.5694,7073.3411
20.5864,7087.1391
20.6034,7065.1151
20.6204,7038.7182
20.6374,7050.6531
20.6544,7033.7987
20.6714,7034.1719
20.6884,7104.1994
20.7054,7115.7072
20.7224,6995.0713
20.7394,6961.6582
20.7564,7072.1904
20.7734,7133.2123
20.7904,7080.5974
20.8074,7249.335
20.8244,6985.9787
20.8414,7027.1322
20.8584,6954.4286
20.8754,7003.4434
20.8924,6871.8439
20.9094,6985.1157
20.9264,7096.8301
20.9434,7159.1156
20.9604,6943.3344
20.9774,6977.3626
20.9944,7028.8802
21.0114,6966.3411
21.0284,6683.8124
21.0454,6790.5801
21.0624,6901.0863
21.0794,6861.2463
21.0964,7086.1445
21.1134,6892.8572
21.1304,6991.8112
21.1474,6882.3305
21.1644,6976.3102
21.1814,6912.9568
21.1984,6923.1302
21.2154,6854.9843
21.2324,6808.1443
21.2494,6804.8922
21.2664,6911.0652
21.2834,7000.678
21.3004,6835.9074
21.3174,6871.3481
21.3344,6889.2069
21.3514,6927.5403
21.3684,6903.214
21.3854,6869.9974
21.4024,6879.2515
21.4194,6798.1531
21.4364,6759.0784
21.4534,6855.8744
21.4704,6809.4124
21.4874,6742.9054
21.5044,6699.3763
21.5214,6749.3546
21.5384,6810.0051
21.5554,6700.1312
21.5724,6694.6927
21.5894,6747.2136
21.6064,6806.041
21.6234,6774.2971
21.6404,6807.4758
21.6574,6718.953
21.6744,6726.2411
21.6914,6731.133
21.7084,6740.6496
21.7254,6817.2887
21.7424,6770.8668
21.7594,6821.5024
21.7764,6690.5942
21.7934,6678.0528
21.8104,6732.2228
21.8274,6591.7791
21.8444,6597.0414
21.8614,6618.782
21.8784,6702.949
21.8954,6598.1908
21.9124,6646.9109
21.9294,6710.047
21.9464,6650.9425
21.9634,6601.6275
21.9804,6754.4913
21.9974,6634.5156
22.0144,6663.155
22.0314,6776.2622
22.0484,6537.6042
22.0654,6654.2892
22.0824,6604.519
22.0994,6590.2574
22.1164,6642.2607
22.1334,6662.2952
22.1504,6525.6448
22.1674,6596.4086
22.1844,6530.2498
22.2014,6599.7119
22.2184,6613.1638
22.2354,6653.5067
22.2524,6600.7162
22.2694,6600.7803
22.2864,6539.4114
22.3034,6547.8315
22.3204,6486.5031
22.3374,6634.7561
22.3544,6609.8199
22.3714,6556.3955
22.3884,6600.6793
22.4054,6563.4892
22.4224,6533.5399
22.4394,6465.6408
22.4564,6414.041
22.4734,6409.1892
22.4904,6478.2082
22.5074,6510.4251
22.5244,6455.6613
22.5414,6587.4174
22.5584,6564.4557
22.5754,6549.249
22.5924,6443.6931
22.6094,6481.8431
22.6264,6474.0665
22.6434,6433.3561
22.6604,6463.203
22.6774,6452.4846
22.6944,6437.8909
22.7114,6504.7371
22.7284,6539.4663
22.7454,6435.1258
22.7624,6499.2791
22.7794,6384.237
22.7964,6442.1877
22.8134,6474.4637
22.8304,6509.1192
22.8474,6382.0809
22.8644,6365.0
22.8814,6485.5093
22.8984,6485.6908
22.9154,6340.8745
22.9324,6546.8135
22.9494,6366.0735
22.9664,6340.1198
22.9834,6360.6037
23.0004,6427.5721
23.0174,6449.4302
23.0344,6561.1124
23.0514,6279.1737
23.0684,6490.3839
23.0854,6369.599
23.1024,6414.6483
23.1194,6450.1167
23.1364,6432.6862
23.1534,6467.7778
23.1704,6512.7178
23.1874,6358.7843
23.2044,6436.0145
23.2214,6384.6045
23.2384,6309.0465
23.2554,6406.2974
23.2724,6338.9038
23.2894,6331.6242
23.3064,6311.463
23.3234,6331.8729
23.3404,6294.8552
23.3574,6220.451
23.3744,6327.5132
23.3914,6425.1355
23.4084,6394.2804
23.4254,6385.3514
23.4424,6399.5555
23.4594,6367.9559
23.4764,6316.2089
23.4934,6408.0201
23.5104,6320.0138
23.5274,6262.6113
23.5444,6349.2812
23.5614,6384.4961
23.5784,6385.6642
23.5954,6407.6334
23.6124,6336.8401
23.6294,6304.9225
23.6464,6290.0777
23.6634,6328.1695
23.6804,6205.7304
23.6974,6292.6102
23.7144,6248.5504
23.7314,6326.8129
23.7484,6211.8061
23.7654,6375.6786
23.7824,6310.5321
23.7994,6273.6476
23.8164,6306.6777
23.8334,6247.215
23.8504,6288.7609
23.8674,6286.6238
23.8844,6141.3481
23.9014,6263.0509
23.9184,6293.3463
23.9354,6240.4789
23.9524,6249.9243
23.9694,6238.791
23.9864,6160.2846
24.0034,6286.3736
24.0204,6413.5116
24.0374,6374.7491
24.0544,6413.4403
24.0714,6487.6818
24.0884,6314.7623
24.1054,6286.8974
24.1224,6400.1568
24.1394,6340.6017
24.1564,6410.776
24.1734,6287.4368
24.1904,6313.2905
24.2074,6419.2109
24.2244,6416.8908
24.2414,6480.847
24.2584,6618.8978
24.2754,6441.4724
24.2924,6416.4505
24.3094,6513.0203
24.3264,6626.8412
24.3434,6566.1163
24.3604,6516.7305
24.3774,6505.3686
24.3944,6575.8135
24.4114,6648.7141
24.4284,6609.3902
24.4454,6675.4919
24.4624,6620.4092
24.4794,6657.347
24.4964,6644.0383
24.5134,6567.7857
24.5304,6578.5543
24.5474,6567.6719
24.5644,6508.1981
24.5814,6495.8397
24.5984,6469.0922
24.6154,6504.2144
24.6324,6547.1874
24.6494,6433.8623
24.6664,6443.2574
24.6834,6357.3088
24.7004,6430.376
24.7174,6543.162
24.7344,6528.8569
24.7514,6318.1676
24.7684,6397.147
24.7854,6300.4433
24.8024,6196.2602
24.8194,6258.7237
24.8364,6334.1997
24.8534,6236.5741
24.8704,6437.9323
24.8874,6266.9338
24.9044,6311.7016
24.9214,6199.7714
24.9384,6247.6637
24.9554,6211.1648
24.9724,6053.8975
24.9894,6304.3167
25.0064,6274.9393
25.0234,6232.7481
25.0404,6278.0276
25.0574,6279.8216
25.0744,6222.6395
25.0914,6118.2094
25.1084,6083.6117
25.1254,6188.8503
25.1424,6232.1162
25.1594,6124.241
25.1764,6123.2302
25.1934,6177.2014
25.2104,6139.9042
25.2274,6174.91
25.2444,6200.0732
25.2614,6211.6121
25.2784,6136.9919
25.2954,6107.7086
25.3124,6254.4533
25.3294,6295.5134
25.3464,6219.1346
25.3634,6049.4574
25.3804,6182.9358
25.3974,6283.4022
25.4144,6297.4943
25.4314,6261.1675
25.4484,6208.5483
25.4654,6283.6555
25.4824,6255.3353
25.4994,6114.0294
25.5164,6170.4556
25.5334,6241.0761
25.5504,6251.2226
25.5674,6215.0637
25.5844,6245.6978
25.6014,6216.5686
25.6184,6225.3792
25.6354,6172.424
25.6524,6262.315
25.6694,6190.2292
25.6864,6222.3654
25.7034,6098.0073
25.7204,6274.8155
25.7374,6262.8404
25.7544,6130.583
25.7714,6143.1417
25.7884,6182.2269
25.8054,6119.2331
25.8224,6116.4537
25.8394,6276.3107
25.8564,6255.0339
25.8734,6302.9606
25.8904,6040.9244
25.9074,6092.7295
25.9244,6296.4162
25.9414,6325.7718
25.9584,6222.5094
25.9754,6249.9066
25.9924,6209.0045
26.0094,6273.8002
26.0264,6438.5349
26.0434,6306.5759
26.0604,6219.1842
26.0774,6255.513
26.0944,6261.3315
26.1114,6272.848
26.1284,6343.4809
26.1454,6346.4194
26.1624,6365.2055
26.1794,6288.8607
26.1964,6329.1796
26.2134,6331.1797
26.2304,6330.6208
26.2474,6343.0236
26.2644,6353.6074
26.2814,6425.8808
26.2984,6409.6513
26.3154,6371.18
26.3324,6421.7004
26.3494,6480.7753
26.3664,6469.3855
26.3834,6523.2229
26.4004,6550.7132
26.4174,6518.4317
26.4344,6496.3552
26.4514,6523.954
26.4684,6574.0064
26.4854,6642.2775
26.5024,6623.3947
26.5194,6609.5452
26.5364,6692.6338
26.5534,6819.0045
26.5704,6855.2934
26.5874,6743.6017
26.6044,6742.1491
26.6214,6823.2846
26.6384,6796.7974
26.6554,6908.1992
26.6724,6959.2739
26.6894,6892.4707
26.7064,7129.9407
26.7234,7107.7092
26.7404,7167.4584
26.7574,7250.7373
26.7744,7225.1872
26.7914,7413.0547
26.8084,7228.2807
26.8254,7402.9487
26.8424,7304.5274
26.8594,7287.4083
26.8764,7226.2301
26.8934,7505.28
26.9104,7456.9251
26.9274,7318.4159
26.9444,7332.1332
26.9614,7348.1438
26.9784,7250.2408
26.9954,7078.2022
27.0124,7098.7042
27.0294,7191.3334
27.0464,6901.3409
27.0634,6941.8298
27.0804,6897.8769
27.0974,6725.9481
27.1144,6752.6914
27.1314,6676.0268
27.1484,6784.3358
27.1654,6778.115
27.1824,6702.2258
27.1994,6566.3323
27.2164,6560.3251
27.2334,6686.9002
27.2504,6493.2929
27.2674,6512.2961
27.2844,6486.288
27.3014,6475.5879
27.3184,6442.7966
27.3354,6409.3798
27.3524,6396.8755
27.3694,6340.6085
27.3864,6291.0574
27.4034,6332.3447
27.4204,6414.5861
27.4374,6309.3254
27.4544,6299.7891
27.4714,6324.625
27.4884,6297.0215
27.5054,6286.1336
27.5224,6192.9543
27.5394,6210.3987
27.5564,6172.5034
27.5734,6224.4449
27.5904,6345.1693
27.6074,6378.2769
27.6244,6262.5014
27.6414,6237.1531
27.6584,6248.9744
27.6754,6319.9221
27.6924,6223.053
27.7094,6238.1649
27.7264,6200.5777
27.7434,6214.3943
27.7604,6114.3256
27.7774,6160.9194
27.7944,6218.2233
27.8114,6154.1482
27.8284,6132.889
27.8454,6214.0237
27.8624,6016.6185
27.8794,6159.9324
27.8964,6167.5045
27.9134,6196.284
27.9304,6169.4243
27.9474,6060.2198
27.9644,6222.0473
27.9814,6185.5731
27.9984,6230.1445
28.0154,6191.8057
28.0324,6104.2791
28.0494,5993.2655
28.0664,6099.9594
28.0834,6170.2427
28.1004,6094.7052
28.1174,5990.2442
28.1344,6060.6117
28.1514,6112.7494
28.1684,6040.8707
28.1854,6046.7173
28.2024,6092.2384
28.2194,5942.6595
28.2364,5968.0141
28.2534,6136.7867
28.2704,6102.7722
28.2874,6132.373
28.3044,6093.8503
28.3214,6032.2532
28.3384,6161.2038
28.3554,6153.6502
28.3724,6136.9858
28.3894,6047.3197
28.4064,6040.823
28.4234,6142.7463
28.4404,6086.7084
28.4574,5982.3682
28.4744,6029.3023
28.4914,6002.0374
28.5084,5972.3315
28.5254,5976.4074
28.5424,6025.1759
28.5594,6033.4245
28.5764,6140.6834
28.5934,6040.0592
28.6104,6027.0637
28.6274,6054.1561
28.6444,6087.5273
28.6614,6086.4683
28.6784,6117.2751
28.6954,6136.6041
28.7124,6012.0785
28.7294,6011.4489
28.7464,6067.8419
28.7634,6062.4283
28.7804,6065.5763
28.7974,6026.8337
28.8144,5987.9073
28.8314,6134.9314
28.8484,6159.6873
28.8654,5981.8604
28.8824,5901.7678
28.8994,6142.9189
28.9164,5983.4064
28.9334,6031.0942
28.9504,6101.6092
28.9674,6139.4212
28.9844,6135.0319
29.0014,6072.9649
29.0184,6039.1715
29.0354,6037.0814
29.0524,6059.7023
29.0694,5940.8101
29.0864,6099.2212
29.1034,6033.5388
29.1204,6027.9568
29.1374,6047.8029
29.1544,6059.4468
29.1714,5990.7074
29.1884,6040.5022
29.2054,5996.5095
29.2224,6087.3369
29.2394,6000.1938
29.2564,5933.8979
29.2734,6051.1197
29.2904,6020.7723
29.3074,5918.9705
29.3244,6006.6005
29.3414,5978.3044
29.3584,5943.7505
29.3754,6031.0777
29.3924,6113.0544
29.4094,6045.6401
29.4264,5889.5245
29.4434,5858.3851
29.4604,5955.2521
29.4774,5986.1727
29.4944,5962.7454
29.5114,5922.774
29.5284,5861.0945
29.5454,5868.4026
29.5624,6023.7149
29.5794,5972.9047
29.5964,6025.0725
29.6134,5996.8133
29.6304,6052.797
29.6474,5909.939
29.6644,5999.8178
29.6814,5921.1432
29.6984,5996.5482
29.7154,5996.6895
29.7324,5917.1963
29.7494,5939.4028
29.7664,5862.2727
29.7834,5947.5287
29.8004,5965.4229
29.8174,5899.126
29.8344,6037.0783
29.8514,5804.0858
29.8684,6090.4143
29.8854,5962.7997
29.9024,5787.2242
29.9194,5877.5299
29.9364,5903.3093
29.9534,5959.9109
29.9704,5909.8528
29.9874,5966.8893
30.0044,5918.0056
30.0214,5827.06
30.0384,5858.5969
30.0554,5909.1003
30.0724,5890.5823
30.0894,5857.8951
30.1064,5902.5538
30.1234,6010.9025
30.1404,6064.0891
30.1574,5955.6733
30.1744,5883.0434
30.1914,5870.431
30.2084,5870.771
30.2254,5934.276
30.2424,6049.5029
30.2594,5988.795
30.2764,5954.2158
30.2934,5912.8641
30.3104,5940.2621
30.3274,5991.9251
30.3444,5954.1116
30.3614,5915.5662
30.3784,5973.6318
30.3954,5937.3925
30.4124,5839.583
30.4294,5882.6214
30.4464,5959.64
30.4634,5940.5785
30.4804,5972.2994
30.4974,5894.0515
30.5144,5829.8691
30.5314,5901.7386
30.5484,5966.3336
30.5654,6061.4227
30.5824,5981.4911
30.5994,5876.7715
30.6164,5891.1557
30.6334,5912.1792
30.6504,5892.1578
30.6674,5867.0063
30.6844,5910.6195
30.7014,5831.3698
30.7184,5731.2795
30.7354,5864.3489
30.7524,5828.5103
30.7694,5872.7103
30.7864,5830.2074
30.8034,5869.7655
30.8204,5922.4056
30.8374,5909.2339
30.8544,5946.1557
30.8714,5829.3937
30.8884,5904.9819
30.9054,5831.695
30.9224,5935.4951
30.9394,5910.0895
30.9564,5965.4887
30.9734,5841.1695
30.9904,5865.6471
31.0074,5884.104
31.0244,5845.3622
31.0414,5888.5892
31.0584,5898.8151
31.0754,5992.0936
31.0924,6007.9585
31.1094,5912.7989
31.1264,5915.1143
31.1434,5891.6832
31.1604,5904.699
31.1774,5908.4563
31.1944,5871.2675
31.2114,5825.2647
31.2284,5795.888
31.2454,5903.2409
31.2624,5909.4885
31.2794,5872.4379
31.2964,5855.0
31.3134,5771.7646
31.3304,5721.4966
31.3474,5841.9164
31.3644,5933.0778
31.3814,5806.9936
31.3984,5764.8169
31.4154,5852.5636
31.4324,5813.0592
31.4494,5793.6023
31.4664,5797.3232
31.4834,5808.5599
31.5004,5851.6634
31.5174,5846.3945
31.5344,6012.7003
31.5514,5929.3836
31.5684,5829.5705
31.5854,5906.1614
31.6024,5948.1001
31.6194,5928.7821
31.6364,5815.8558
31.6534,5865.4952
31.6704,5810.0991
31.6874,5835.3983
31.7044,5695.5311
31.7214,5909.4007
31.7384,5769.9622
31.7554,5835.8012
31.7724,5801.7993
31.7894,5898.3127
31.8064,5661.2576
31.8234,5869.1749
31.8404,5887.6701
31.8574,5765.2056
31.8744,5895.435
31.8914,5760.3348
31.9084,5935.6984
31.9254,5848.2986
31.9424,5785.3244
31.9594,5777.8004
31.9764,5801.471
31.9934,5818.217
32.0104,5879.8002
32.0274,5970.764
32.0444,5984.1861
32.0614,5873.5168
32.0784,5779.1034
32.0954,5752.7512
32.1124,5823.2734
32.1294,5836.7769
32.1464,5853.1233
32.1634,5892.9558
32.1804,5804.7746
32.1974,5847.6866
32.2144,5857.32
32.2314,5900.607
32.2484,5868.7706
32.2654,5810.4283
32.2824,5782.2267
32.2994,5847.9686
32.3164,5876.848
32.3334,5911.3613
32.3504,5844.0868
32.3674,5818.8757
32.3844,5777.8625
32.4014,5692.1677
32.4184,5791.8011
32.4354,5832.2119
32.4524,5811.5861
32.4694,5793.71
32.4864,5829.9519
32.5034,5728.3647
32.5204,5865.8278
32.5374,5806.7496
32.5544,5821.0745
32.5714,5812.0416
32.5884,5924.7435
32.6054,5835.9867
32.6224,5923.2596
32.6394,5842.6661
32.6564,5889.5096
32.6734,5712.6848
32.6904,5837.9265
32.7074,5850.6553
32.7244,5846.3053
32.7414,5957.031
32.7584,5951.5432
32.7754,5971.4854
32.7924,5839.9612
32.8094,5850.613
32.8264,5720.7228
32.8434,5953.7106
32.8604,5823.0843
32.8774,5878.6671
32.8944,5809.4362
32.9114,5849.2943
32.9284,5847.6585
32.9454,5905.4281
32.9624,5778.2661
32.9794,5736.726
32.9964,5879.3981
33.0134,5884.7818
33.0304,5910.476
33.0474,5777.6201
33.0644,5830.4612
33.0814,5856.0218
33.0984,5813.1195
33.1154,5721.9729
33.1324,5848.2097
33.1494,5891.2909
33.1664,5914.8983
33.1834,5845.5746
33.2004,5755.3339
33.2174,5845.8462
33.2344,5896.9831
33.2514,5853.9339
33.2684,5924.6941
33.2854,5999.5677
33.3024,5983.3787
33.3194,5925.0175
33.3364,5918.0913
33.3534,5829.4934
33.3704,5785.5293
33.3874,5820.1322
33.4044,5850.6726
33.4214,5818.7568
33.4384,5855.335
33.4554,5864.3358
33.4724,5925.175
33.4894,5977.9312
33.5064,5886.8562
33.5234,5966.4495
33.5404,6079.7809
33.5574,5998.2438
33.5744,6036.3039
33.5914,5945.5443
33.6084,6053.8243
33.6254,5998.223
33.6424,6238.1396
33.6594,6190.985
33.6764,5962.3273
33.6934,6025.0317
33.7104,6042.3319
33.7274,6248.5833
33.7444,6117.9123
33.7614,6096.3584
33.7784,6324.8213
33.7954,6162.8299
33.8124,6150.707
33.8294,6206.0658
33.8464,6190.4552
33.8634,6257.7403
33.8804,6431.8247
33.8974,6316.3954
33.9144,6474.5032
33.9314,6352.5788
33.9484,6410.1204
33.9654,6394.486
33.9824,6488.0919
33.9994,6438.6842
34.0164,6424.7292
34.0334,6473.3582
34.0504,6405.0698
34.0674,6389.4493
34.0844,6356.7284
34.1014,6431.0
34.1184,6400.3615
34.1354,6306.6603
34.1524,6285.4982
34.1694,6358.4916
34.1864,6380.5148
34.2034,6342.8067
34.2204,6282.8756
34.2374,6254.1719
34.2544,6235.7279
34.2714,6226.9277
34.2884,6152.4454
34.3054,6148.9754
34.3224,6147.0195
34.3394,6162.3819
34.3564,6105.8052
34.3734,6025.0163
34.3904,5993.5783
34.4074,6067.7075
34.4244,6058.0232
34.4414,6020.313
34.4584,6018.372
34.4754,6023.9228
34.4924,6078.5991
34.5094,6056.2068
34.5264,6035.7144
34.5434,6052.5368
34.5604,5904.019
34.5774,5917.0639
34.5944,5915.1644
34.6114,5895.1704
34.6284,5969.2881
34.6454,5946.0826
34.6624,5801.6434
34.6794,5889.7178
34.6964,5809.069
34.7134,5889.8985
34.7304,5867.0898
34.7474,5973.767
34.7644,5919.1723
34.7814,5903.1426
34.7984,5911.4549
34.8154,5865.3179
34.8324,5890.4052
34.8494,5880.166
34.8664,5861.9122
34.8834,5872.7502
34.9004,5826.4056
34.9174,5852.0239
34.9344,5950.8024
34.9514,5809.3092
34.9684,5828.893
34.9854,5819.4046
35.0024,5650.6999
35.0194,5802.2034
35.0364,5757.6001
35.0534,5815.8721
35.0704,5779.8111
35.0874,5684.2424
35.1044,5692.0875
35.1214,5745.6402
35.1384,5721.9978
35.1554,5745.5206
35.1724,5821.0645
35.1894,5767.4071
35.2064,5763.6799
35.2234,5813.1964
35.2404,5795.1934
35.2574,5798.36
35.2744,5772.1633
35.2914,5675.654
35.3084,5703.0346
35.3254,5798.3711
35.3424,5864.5585
35.3594,5828.6356
35.3764,5790.0
35.3934,5791.9087
35.4104,5794.3071
35.4274,5756.0933
35.4444,5779.6611
35.4614,5758.0891
35.4784,5711.3719
35.4954,5730.3365
35.5124,5745.5432
35.5294,5798.8895
35.5464,5823.501
35.5634,5939.2636
35.5804,5717.2827
35.5974,5708.0226
35.6144,5745.2692
35.6314,5729.8029
35.6484,5698.3468
35.6654,5833.7291
35.6824,5765.1627
35.6994,5719.2156
35.7164,5829.8494
35.7334,5757.4194
35.7504,5849.9135
35.7674,5867.4341
35.7844,5649.6701
35.8014,5575.6888
35.8184,5966.2256
35.8354,5786.2049
35.8524,5858.4854
35.8694,5710.7576
35.8864,5643.7919
35.9034,5776.0249
35.9204,5711.0162
35.9374,5671.491
35.9544,5614.9077
35.9714,5680.7374
35.9884,5735.0718
36.0054,5636.3135
36.0224,5699.764
36.0394,5660.6767
36.0564,5755.8062
36.0734,5719.3812
36.0904,5701.9379
36.1074,5711.5719
36.1244,5759.5203
36.1414,5765.4091
36.1584,5735.1111
36.1754,5633.9314
36.1924,5628.3109
36.2094,5664.2788
36.2264,5747.4938
36.2434,5742.4829
36.2604,5709.5967
36.2774,5703.1067
36.2944,5764.8338
36.3114,5789.199
36.3284,5681.9638
36.3454,5734.2302
36.3624,5828.5694
36.3794,5836.4247
36.3964,5680.2052
36.4134,5631.2808
36.4304,5708.1166
36.4474,5707.7015
36.4644,5760.5019
36.4814,5732.3168
36.4984,5768.6693
36.5154,5682.7158
36.5324,5643.4738
36.5494,5655.6003
36.5664,5724.444
36.5834,5750.6852
36.6004,5650.3077
36.6174,5717.6227
36.6344,5811.5715
36.6514,5688.3549
36.6684,5731.9243
36.6854,5741.6961
36.7024,5767.1323
36.7194,5741.4346
36.7364,5767.0213
36.7534,5782.8033
36.7704,5670.6816
36.7874,5794.2432
36.8044,5739.3063
36.8214,5660.0593
36.8384,5635.4611
36.8554,5779.4195
36.8724,5809.7155
36.8894,5810.8437
36.9064,5653.4416
36.9234,5782.4422
36.9404,5782.1956
36.9574,5705.6788
36.9744,5639.8891
36.9914,5681.9398
37.0084,5757.0055
37.0254,5733.949
37.0424,5773.7788
37.0594,5801.5233
37.0764,5750.181
37.0934,5810.1675
37.1104,5745.202
37.1274,5708.0954
37.1444,5652.1972
37.1614,5617.2488
37.1784,5727.976
37.1954,5608.4796
37.2124,5585.1681
37.2294,5724.2635
37.2464,5776.7659
37.2634,5770.4632
37.2804,5720.1341
37.2974,5674.8579
37.3144,5650.9869
37.3314,5660.63
37.3484,5716.5065
37.3654,5707.6964
37.3824,5662.6907
37.3994,5713.8009
37.4164,5655.695
37.4334,5838.8032
37.4504,5703.9521
37.4674,5714.9914
37.4844,5696.9864
37.5014,5712.147
37.5184,5699.5093
37.5354,5664.7237
37.5524,5697.8644
37.5694,5626.3082
37.5864,5713.2124
37.6034,5686.6476
37.6204,5820.4408
37.6374,5736.0583
37.6544,5808.2731
37.6714,5713.1462
37.6884,5662.4697
37.7054,5677.7621
37.7224,5801.9606
37.7394,5789.671
37.7564,5775.6271
37.7734,5813.0316
37.7904,5743.7693
37.8074,5731.4972
37.8244,5756.1981
37.8414,5687.1187
37.8584,5821.991
37.8754,5722.5508
37.8924,5669.7681
37.9094,5773.2665
37.9264,5728.9949
37.9434,5690.8368
37.9604,5699.2898
37.9774,5656.0996
37.9944,5695.5671
38.0114,5753.7847
38.0284,5743.8849
38.0454,5857.0586
38.0624,5851.0465
38.0794,5835.2357
38.0964,5757.5336
38.1134,5727.1451
38.1304,5708.5101
38.1474,5791.9111
38.1644,5883.4627
38.1814,5920.1346
38.1984,5857.859
38.2154,5866.5376
38.2324,5798.64
38.2494,5775.3836
38.2664,5810.2819
38.2834,5809.7005
38.3004,5855.3124
38.3174,5750.0478
38.3344,5725.2728
38.3514,5781.0597
38.3684,5841.1884
38.3854,5910.3665
38.4024,5834.0911
38.4194,5773.92
38.4364,5728.366
38.4534,5792.3533
38.4704,5948.0314
38.4874,5871.6642
38.5044,5765.579
38.5214,5836.6866
38.5384,5833.6869
38.5554,5795.8544
38.5724,5783.0627
38.5894,5691.7868
38.6064,5800.8305
38.6234,5734.0472
38.6404,5821.5639
38.6574,5892.8416
38.6744,5850.3709
38.6914,5815.4043
38.7084,5858.2424
38.7254,5899.7591
38.7424,5761.9971
38.7594,5810.6294
38.7764,5812.4329
38.7934,5722.1523
38.8104,5888.9793
38.8274,5941.9575
38.8444,5903.2295
38.8614,5858.4671
38.8784,5946.4597
38.8954,5868.1694
38.9124,5822.3573
38.9294,5863.6406
38.9464,5817.6364
38.9634,5961.8677
38.9804,5911.728
38.9974,5953.3259
39.0144,5963.3728
39.0314,6004.9764
39.0484,5898.3932
39.0654,5817.248
39.0824,5891.3701
39.0994,5949.4998
39.1164,5926.4748
39.1334,5891.2396
39.1504,6045.9248
39.1674,6128.7116
39.1844,6038.4553
39.2014,6025.103
39.2184,6046.0929
39.2354,6115.8862
39.2524,6055.0208
39.2694,5945.5536
39.2864,6026.8162
39.3034,6021.3977
39.3204,5913.5167
39.3374,6003.9977
39.3544,5960.147
39.3714,5938.6775
39.3884,6069.5281
39.4054,6060.471
39.4224,6001.1787
39.4394,6065.8257
39.4564,5891.4124
39.4734,5905.1564
39.4904,5948.4044
39.5074,5864.0822
39.5244,5830.6446
39.5414,5784.5485
39.5584,5806.5551
39.5754,5854.4407
39.5924,5828.3662
39.6094,5756.8386
39.6264,5842.0227
39.6434,5737.144
39.6604,5873.0753
39.6774,5725.4977
39.6944,5882.9735
39.7114,6006.8487
39.7284,5805.0931
39.7454,5815.1697
39.7624,5593.8644
39.7794,5750.7675
39.7964,5669.0066
39.8134,5788.1754
39.8304,5669.483
39.8474,5657.1799
39.8644,5755.7778
39.8814,5843.5662
39.8984,5740.5411
39.9154,5806.5703
39.9324,5806.5462
39.9494,5754.1998
39.9664,5718.4229
39.9834,5617.4459
40.0004,5688.9065
40.0174,5739.3362
40.0344,5696.3075
40.0514,5800.7753
40.0684,5775.1862
40.0854,5679.7123
40.1024,5699.8171
40.1194,5769.2446
40.1364,5746.455
40.1534,5703.1212
40.1704,5632.2564
40.1874,5630.6908
40.2044,5739.568
40.2214,5784.7581
40.2384,5761.8854
40.2554,5762.5908
40.2724,5693.6471
40.2894,5659.6713
40.3064,5756.5379
40.3234,5779.6569
40.3404,5658.4337
40.3574,5624.8021
40.3744,5655.9578
40.3914,5689.3396
40.4084,5717.3287
40.4254,5715.7453
40.4424,5760.5976
40.4594,5735.7509
40.4764,5639.1583
40.4934,5640.1275
40.5104,5643.3264
40.5274,5695.0996
40.5444,5671.7593
40.5614,5659.8908
40.5784,5733.2858
40.5954,5606.2124
40.6124,5652.3693
40.6294,5689.5215
40.6464,5676.3745
40.6634,5689.8924
40.6804,5835.7244
40.6974,5706.0151
40.7144,5773.7908
40.7314,5656.3932
40.7484,5597.4904
40.7654,5725.8574
40.7824,5675.2484
40.7994,5735.0023
40.8164,5738.2973
40.8334,5657.8486
40.8504,5764.9903
40.8674,5852.0604
40.8844,5719.4708
40.9014,5754.0148
40.9184,5810.9114
40.9354,5754.981
40.9524,5710.1263
40.9694,5669.3603
40.9864,5710.0499
41.0034,5747.4405
41.0204,5714.3092
41.0374,5796.7776
41.0544,5679.6977
41.0714,5767.3837
41.0884,5848.7892
41.1054,5849.2118
41.1224,5747.6476
41.1394,5748.3761
41.1564,5737.4778
41.1734,5635.6379
41.1904,5560.8579
41.2074,5638.8671
41.2244,5660.6899
41.2414,5585.7946
41.2584,5663.0921
41.2754,5766.4012
41.2924,5774.7367
41.3094,5739.7478
41.3264,5766.3007
41.3434,5826.6382
41.3604,5856.9118
41.3774,5693.2763
41.3944,5720.3769
41.4114,5766.793
41.4284,5725.5814
41.4454,5712.7871
41.4624,5750.0006
41.4794,5828.8393
41.4964,5642.66
41.5134,5738.4225
41.5304,5667.5385
41.5474,5645.9833
41.5644,5651.3562
41.5814,5689.9375
41.5984,5655.2967
41.6154,5722.1099
41.6324,5795.3539
41.6494,5757.2234
41.6664,5677.0117
41.6834,5676.4935
41.7004,5628.4511
41.7174,5677.9836
41.7344,5671.1611
41.7514,5765.4712
41.7684,5767.4641
41.7854,5674.8883
41.8024,5673.6353
41.8194,5816.1577
41.8364,5784.4754
41.8534,5715.2716
41.8704,5718.4317
41.8874,5626.2329
41.9044,5677.8753
41.9214,5694.52
41.9384,5693.2033
41.9554,5703.2178
41.9724,5652.6019
41.9894,5749.3233
42.0064,5640.5595
42.0234,5624.0511
42.0404,5685.738
42.0574,5655.9538
42.0744,5625.9149
42.0914,5590.236
42.1084,5623.3535
42.1254,5630.3843
42.1424,5619.0667
42.1594,5583.1754
42.1764,5721.3646
42.1934,5698.9523
42.2104,5621.7122
42.2274,5663.2742
42.2444,5747.7019
42.2614,5723.9621
42.2784,5686.7032
42.2954,5609.9313
42.3124,5732.0559
42.3294,5870.8982
42.3464,5845.6958
42.3634,5752.7125
42.3804,5769.2412
42.3974,5768.3981
42.4144,5745.2461
42.4314,5725.0055
42.4484,5671.8057
42.4654,5730.8417
42.4824,5608.9139
42.4994,5712.6028
42.5164,5654.3228
42.5334,5539.4292
42.5504,5763.6336
42.5674,5737.8474
42.5844,5692.4339
42.6014,5724.6306
42.6184,5841.5503
42.6354,5779.2264
42.6524,5610.5932
42.6694,5655.7655
42.6864,5743.9824
42.7034,5779.7842
42.7204,5723.9684
42.7374,5613.8015
42.7544,5641.2032
42.7714,5783.5683
42.7884,5726.3444
42.8054,5777.843
42.8224,5902.8052
42.8394,5759.2694
42.8564,5811.0197
42.8734,5790.3247
42.8904,5770.2784
42.9074,5774.5459
42.9244,5785.8681
42.9414,5739.8867
42.9584,5645.0097
42.9754,5750.3448
42.9924,5709.265
43.0094,5772.208
43.0264,5785.0365
43.0434,5694.7466
43.0604,5724.9968
43.0774,5718.2675
43.0944,5716.3918
43.1114,5684.0819
43.1284,5668.7423
43.1454,5769.3658
43.1624,5763.4482
43.1794,5738.229
43.1964,5799.3343
43.2134,5819.4011
43.2304,5816.2148
43.2474,5796.878
43.2644,5760.3832
43.2814,5757.796
43.2984,5720.0979
43.3154,5670.8075
43.3324,5797.5702
43.3494,5864.6661
43.3664,5777.047
43.3834,5741.9731
43.4004,5798.2768
43.4174,5677.3159
43.4344,5780.0733
43.4514,5743.6292
43.4684,5689.3733
43.4854,5817.0826
43.5024,5717.003
43.5194,5665.9918
43.5364,5672.0345
43.5534,5712.9689
43.5704,5798.3704
43.5874,5789.5031
43.6044,5731.1008
43.6214,5602.1767
43.6384,5690.5057
43.6554,5596.474
43.6724,5559.2651
43.6894,5693.494
43.7064,5657.7249
43.7234,5645.5343
43.7404,5657.9239
43.7574,5644.9369
43.7744,5625.0212
43.7914,5682.4302
43.8084,5651.377
43.8254,5679.7299
43.8424,5664.7709
43.8594,5791.076
43.8764,5654.9464
43.8934,5631.7763
43.9104,5635.3064
43.9274,5685.6427
43.9444,5771.4309
43.9614,5630.3657
43.9784,5635.6498
43.9954,5517.5576
44.0124,5581.2644
44.0294,5641.0922
44.0464,5638.0693
44.0634,5634.9135
44.0804,5626.3024
44.0974,5562.5388
44.1144,5607.4503
44.1314,5709.8813
44.1484,5714.6994
44.1654,5661.7038
44.1824,5639.8254
44.1994,5625.074
44.2164,5641.7702
44.2334,5627.8662
44.2504,5643.3598
44.2674,5703.3102
44.2844,5596.9075
44.3014,5586.7293
44.3184,5758.4704
44.3354,5714.9794
44.3524,5614.1923
44.3694,5706.8252
44.3864,5633.5681
44.4034,5636.1158
44.4204,5615.816
44.4374,5638.806
44.4544,5742.2007
44.4714,5824.6876
44.4884,5637.9296
44.5054,5658.544
44.5224,5706.9737
44.5394,5646.7188
44.5564,5636.3067
44.5734,5665.9512
44.5904,5687.6523
44.6074,5743.9026
44.6244,5608.622
44.6414,5591.2808
44.6584,5678.0044
44.6754,5627.7011
44.6924,5671.3379
44.7094,5611.0605
44.7264,5605.0683
44.7434,5629.0313
44.7604,5682.3443
44.7774,5668.1735
44.7944,5650.6855
44.8114,5605.4563
44.8284,5736.8866
44.8454,5739.2539
44.8624,5654.2034
44.8794,5655.2818
44.8964,5702.7501
44.9134,5663.8305
44.9304,5643.0651
44.9474,5608.0683
44.9644,5597.7187
44.9814,5589.2616
44.9984,5530.318
45.0154,5688.9539
45.0324,5756.1463
45.0494,5683.2545
45.0664,5664.4264
45.0834,5748.6239
45.1004,5752.2926
45.1174,5690.3666
45.1344,5639.2668
45.1514,5590.2495
45.1684,5644.5136
45.1854,5624.7141
45.2024,5573.5511
45.2194,5638.4988
45.2364,5672.9601
45.2534,5673.6009
45.2704,5602.4742
45.2874,5558.6981
45.3044,5589.7461
45.3214,5580.7558
45.3384,5598.0281
45.3554,5662.5484
45.3724,5625.525
45.3894,5566.2479
45.4064,5494.855
45.4234,5594.7165
45.4404,5661.2136
45.4574,5564.383
45.4744,5491.5596
45.4914,5564.9242
45.5084,5632.6519
45.5254,5656.6743
45.5424,5682.7258
45.5594,5592.0145
45.5764,5709.2366
45.5934,5763.7035
45.6104,5658.3769
45.6274,5627.9252
45.6444,5633.2147
45.6614,5753.0365
45.6784,5697.2075
45.6954,5783.5558
45.7124,5773.4393
45.7294,5548.4485
45.7464,5574.3059
45.7634,5742.3328
45.7804,5652.8932
45.7974,5655.1227
45.8144,5586.1594
45.8314,5537.22
45.8484,5728.1216
45.8654,5735.9196
45.8824,5681.2832
45.8994,5628.9366
45.9164,5612.5549
45.9334,5675.2636
45.9504,5695.9942
45.9674,5650.0197
45.9844,5733.0324
46.0014,5724.9682
46.0184,5627.9112
46.0354,5746.9298
46.0524,5766.6203
46.0694,5611.5465
46.0864,5602.1781
46.1034,5656.1674
46.1204,5706.2261
46.1374,5703.8694
46.1544,5637.2592
46.1714,5674.2697
46.1884,5649.1063
46.2054,5626.1212
46.2224,5648.7682
46.2394,5716.3436
46.2564,5679.3349
46.2734,5799.6644
46.2904,5709.1122
46.3074,5734.6035
46.3244,5748.6102
46.3414,5672.5634
46.3584,5690.0158
46.3754,5546.2666
46.3924,5608.0442
46.4094,5662.6217
46.4264,5577.2618
46.4434,5723.0739
46.4604,5618.9385
46.4774,5746.2017
46.4944,5615.9525
46.5114,5582.4121
46.5284,5737.3073
46.5454,5719.7704
46.5624,5589.618
46.5794,5719.8276
46.5964,5683.7122
46.6134,5625.8945
46.6304,5602.5758
46.6474,5665.3316
46.6644,5699.0557
46.6814,5634.3341
46.6984,5747.5946
46.7154,5720.7218
46.7324,5722.7865
46.7494,5638.3243
46.7664,5727.8359
46.7834,5676.84
46.8004,5652.3307
46.8174,5685.8715
46.8344,5579.934
46.8514,5650.9507
46.8684,5572.6564
46.8854,5642.2612
46.9024,5646.6608
46.9194,5669.6914
46.9364,5649.9094
46.9534,5666.4177
46.9704,5710.1723
46.9874,5732.3712
47.0044,5734.1189
47.0214,5650.8475
47.0384,5711.4129
47.0554,5771.2204
47.0724,5647.6931
47.0894,5672.0463
47.1064,5682.5687
47.1234,5642.7546
47.1404,5670.9267
47.1574,5708.0259
47.1744,5660.9393
47.1914,5587.2809
47.2084,5733.9147
47.2254,5745.6229
47.2424,5730.1139
47.2594,5672.3969
47.2764,5595.6349
47.2934,5653.7116
47.3104,5658.8162
47.3274,5701.4993
47.3444,5630.1515
47.3614,5492.4431
47.3784,5606.1535
47.3954,5653.0165
47.4124,5583.62
47.4294,5568.3936
47.4464,5561.7974
47.4634,5694.6977
47.4804,5671.2538
47.4974,5686.7584
47.5144,5567.6454
47.5314,5660.2198
47.5484,5691.7028
47.5654,5742.6908
47.5824,5698.8785
47.5994,5695.6633
47.6164,5724.229
47.6334,5577.6696
47.6504,5697.0552
47.6674,5704.4916
47.6844,5595.6818
47.7014,5543.7932
47.7184,5591.8283
47.7354,5713.4189
47.7524,5759.2332
47.7694,5615.0104
47.7864,5728.9378
47.8034,5696.9464
47.8204,5571.9139
47.8374,5616.457
47.8544,5616.3088
47.8714,5520.1871
47.8884,5543.6071
47.9054,5595.1006
47.9224,5525.178
47.9394,5563.4223
47.9564,5620.5148
47.9734,5607.325
47.9904,5570.6338
48.0074,5607.7622
48.0244,5669.3086
48.0414,5716.5585
48.0584,5696.289
48.0754,5616.7504
48.0924,5557.4109
48.1094,5595.4705
48.1264,5620.4896
48.1434,5628.9676
48.1604,5668.6346
48.1774,5625.1299
48.1944,5571.611
48.2114,5594.1789
48.2284,5625.298
48.2454,5544.0352
48.2624,5518.8774
48.2794,5532.0596
48.2964,5615.2464
48.3134,5657.3449
48.3304,5739.6676
48.3474,5607.8564
48.3644,5621.6018
48.3814,5581.146
48.3984,5621.3643
48.4154,5558.5854
48.4324,5589.7448
48.4494,5641.1787
48.4664,5572.1806
48.4834,5630.8614
48.5004,5747.0038
48.5174,5719.839
48.5344,5526.5805
48.5514,5739.5026
48.5684,5577.1849
48.5854,5587.5385
48.6024,5660.9155
48.6194,5600.7384
48.6364,5623.8302
48.6534,5544.7829
48.6704,5609.2518
48.6874,5646.6193
48.7044,5726.9576
48.7214,5684.7315
48.7384,5685.3582
48.7554,5570.4784
48.7724,5663.7074
48.7894,5513.3487
48.8064,5593.7805
48.8234,5616.1423
48.8404,5646.8622
48.8574,5649.2154
48.8744,5546.0046
48.8914,5611.6405
48.9084,5638.4392
48.9254,5617.9148
48.9424,5573.3173
48.9594,5581.0334
48.9764,5630.3696
48.9934,5664.0822
49.0104,5607.8287
49.0274,5600.351
49.0444,5569.6753
49.0614,5544.7689
49.0784,5634.8079
49.0954,5684.9496
49.1124,5628.8152
49.1294,5665.2021
49.1464,5769.0878
49.1634,5766.5014
49.1804,5678.5113
49.1974,5670.2929
49.2144,5718.8308
49.2314,5694.3863
49.2484,5708.5706
49.2654,5610.7814
49.2824,5644.7027
49.2994,5671.308
49.3164,5660.2006
49.3334,5644.1376
49.3504,5728.8661
49.3674,5823.4611
49.3844,5750.7151
49.4014,5565.7627
49.4184,5616.6746
49.4354,5567.9157
49.4524,5660.9584
49.4694,5613.4148
49.4864,5660.8482
49.5034,5584.8658
49.5204,5668.4801
49.5374,5624.9101
49.5544,5619.4519
49.5714,5702.13
49.5884,5676.3691
49.6054,5572.7215
49.6224,5690.2477
49.6394,5751.1023
49.6564,5762.4433
49.6734,5672.5273
49.6904,5621.6634
49.7074,5589.0164
49.7244,5612.6958
49.7414,5585.8116
49.7584,5689.8689
49.7754,5609.2496
49.7924,5638.9859
49.8094,5581.877
49.8264,5647.099
49.8434,5670.6669
49.8604,5674.7036
49.8774,5626.5879
49.8944,5661.7129
49.9114,5788.0017
49.9284,5737.5453
49.9454,5737.7141
49.9624,5785.5248
49.9794,5675.1016
49.9964,5776.9588
50.0134,5783.2741
50.0304,5738.8107
50.0474,5700.0388
50.0644,5605.8302
50.0814,5678.7204
50.0984,5732.907
50.1154,5679.2837
50.1324,5700.1962
50.1494,5694.8057
50.1664,5646.3778
50.1834,5587.5941
50.2004,5737.265
50.2174,5679.7465
50.2344,5696.1204
50.2514,5656.469
50.2684,5682.5294
50.2854,5653.4846
50.3024,5796.1677
50.3194,5800.9238
50.3364,5796.9397
50.3534,5819.8545
50.3704,5754.5153
50.3874,5723.7475
50.4044,5833.4413
50.4214,5583.196
50.4384,5620.9593
50.4554,5673.2112
50.4724,5664.462
50.4894,5615.061
50.5064,5850.0656
50.5234,5718.3735
50.5404,5817.7653
50.5574,5742.3068
50.5744,5648.0877
50.5914,5647.6966
50.6084,5772.0471
50.6254,5642.6341
50.6424,5790.3846
50.6594,5612.7023
50.6764,5724.1818
50.6934,5732.7917
50.7104,5737.0678
50.7274,5739.3206
50.7444,5860.8071
50.7614,5837.7794
50.7784,5740.995
50.7954,5738.7441
50.8124,5721.942
50.8294,5784.6757
50.8464,5785.708
50.8634,5729.7836
50.8804,5650.3315
50.8974,5701.082
50.9144,5696.8034
50.9314,5735.3477
50.9484,5767.9103
50.9654,5738.9911
50.9824,5756.2866
50.9994,5740.474
51.0164,5723.9102
51.0334,5706.6583
51.0504,5723.8214
51.0674,5702.5931
51.0844,5683.4185
51.1014,5728.8526
51.1184,5751.0556
51.1354,5724.4928
51.1524,5776.2607
51.1694,5691.7606
51.1864,5662.548
51.2034,5746.444
51.2204,5879.2056
51.2374,5848.0565
51.2544,5844.9319
51.2714,5837.3025
51.2884,5726.2382
51.3054,5765.0728
51.3224,5857.7606
51.3394,5724.849
51.3564,5684.9609
51.3734,5682.1228
51.3904,5724.0412
51.4074,5828.3831
51.4244,5729.3013
51.4414,5725.7316
51.4584,5824.2876
51.4754,5770.128
51.4924,5783.9724
51.5094,5758.4443
51.5264,5728.8232
51.5434,5895.5508
51.5604,5795.0944
51.5774,5831.4898
51.5944,5778.4121
51.6114,5926.5213
51.6284,5898.4106
51.6454,5973.0049
51.6624,5922.4537
51.6794,5800.1863
51.6964,5887.6722
51.7134,5976.0492
51.7304,6068.3243
51.7474,6086.506
51.7644,6006.671
51.7814,6149.0075
51.7984,6092.8123
51.8154,6185.7658
51.8324,6118.5617
51.8494,6120.0044
51.8664,6064.8473
51.8834,5984.7074
51.9004,6047.0312
51.9174,6162.3124
51.9344,6119.0
51.9514,6121.3233
51.9684,6187.1332
51.9854,6290.9432
52.0024,6243.3289
52.0194,6224.248
52.0364,6257.2645
52.0534,6286.8974
52.0704,6380.1455
52.0874,6302.6305
52.1044,6251.9069
52.1214,6370.989
52.1384,6490.5427
52.1554,6399.3544
52.1724,6351.4068
52.1894,6323.7925
52.2064,6428.7064
52.2234,6458.437
52.2404,6405.2224
52.2574,6336.48
52.2744,6423.288
52.2914,6486.4593
52.3084,6314.6082
52.3254,6318.3934
52.3424,6338.9306
52.3594,6329.5689
52.3764,6445.4541
52.3934,6239.6704
52.4104,6388.4695
52.4274,6272.9621
52.4444,6201.2977
52.4614,6161.6466
52.4784,6069.0186
52.4954,6139.4563
52.5124,6109.6267
52.5294,6131.1676
52.5464,6189.7957
52.5634,5953.3678
52.5804,5914.6815
52.5974,6087.3034
52.6144,6042.8149
52.6314,6034.059
52.6484,6071.5051
52.6654,5976.1802
52.6824,5979.2156
52.6994,5816.3866
52.7164,5880.7761
52.7334,5872.027
52.7504,5991.4466
52.7674,5997.3495
52.7844,6000.9934
52.8014,5969.3429
52.8184,5965.9251
52.8354,5950.018
52.8524,5947.6381
52.8694,5913.1836
52.8864,5809.1911
52.9034,5822.6101
52.9204,5823.1323
52.9374,5749.7924
52.9544,5731.1379
52.9714,5820.6615
52.9884,5815.6204
53.0054,5817.2324
53.0224,5832.7267
53.0394,5790.7324
53.0564,5687.7925
53.0734,5724.4513
53.0904,5828.7131
53.1074,5730.1281
53.1244,5671.1954
53.1414,5730.6012
53.1584,5915.3229
53.1754,5896.7108
53.1924,5764.1783
53.2094,5803.0631
53.2264,5876.9101
53.2434,5794.0029
53.2604,5717.503
53.2774,5846.3419
53.2944,5776.9607
53.3114,5701.8006
53.3284,5659.1626
53.3454,5680.4426
53.3624,5737.0232
53.3794,5735.6722
53.3964,5663.1395
53.4134,5584.8091
53.4304,5736.8172
53.4474,5751.8509
53.4644,5546.6311
53.4814,5807.9325
53.4984,5562.273
53.5154,5747.3933
53.5324,5671.5029
53.5494,5725.1186
53.5664,5665.6694
53.5834,5608.8254
53.6004,5754.1591
53.6174,5656.7445
53.6344,5487.5987
53.6514,5650.2825
53.6684,5723.6754
53.6854,5659.0098
53.7024,5717.5377
53.7194,5687.7509
53.7364,5875.6472
53.7534,5788.9504
53.7704,5690.7651
53.7874,5676.806
53.8044,5738.2208
53.8214,5693.6132
53.8384,5634.9604
53.8554,5720.609
53.8724,5685.2381
53.8894,5631.2557
53.9064,5662.3174
53.9234,5793.9153
53.9404,5762.1626
53.9574,5667.401
53.9744,5724.3349
53.9914,5744.8105
54.0084,5677.1271
54.0254,5628.8089
54.0424,5639.4901
54.0594,5715.2443
54.0764,5694.8078
54.0934,5735.4298
54.1104,5735.4885
54.1274,5713.3238
54.1444,5710.2261
54.1614,5738.8513
54.1784,5665.8212
54.1954,5609.405
54.2124,5593.3742
54.2294,5691.6015
54.2464,5624.3439
54.2634,5707.5024
54.2804,5816.8324
54.2974,5733.8219
54.3144,5682.2164
54.3314,5760.9346
54.3484,5663.0032
54.3654,5782.2851
54.3824,5665.8563
54.3994,5728.4475
54.4164,5734.9097
54.4334,5689.5893
54.4504,5853.7272
54.4674,5572.6745
54.4844,5697.0582
54.5014,5790.976
54.5184,5694.7825
54.5354,5753.8189
54.5524,5743.622
54.5694,5764.5246
54.5864,5810.0083
54.6034,5773.7587
54.6204,5802.0503
54.6374,5781.9124
54.6544,5719.9034
54.6714,5684.9692
54.6884,5767.0292
54.7054,5784.1995
54.7224,5834.9546
54.7394,5831.5022
54.7564,5866.3589
54.7734,5797.6282
54.7904,5811.5985
54.8074,5772.7937
54.8244,5799.2309
54.8414,5777.1037
54.8584,5813.4798
54.8754,5836.3021
54.8924,5742.7316
54.9094,5808.2895
54.9264,5850.8232
54.9434,5740.689
54.9604,5826.9296
54.9774,5904.491
54.9944,5806.8708
55.0114,5788.7911
55.0284,5877.1315
55.0454,6025.4233
55.0624,6010.8248
55.0794,5897.7638
55.0964,5906.2711
55.1134,5892.0156
55.1304,5823.2233
55.1474,5923.6099
55.1644,5952.5565
55.1814,5886.7025
55.1984,6015.3482
55.2154,6010.1727
55.2324,5999.9962
55.2494,6005.0826
55.2664,6006.0
55.2834,6098.7666
55.3004,6062.0308
55.3174,6048.6863
55.3344,5927.914
55.3514,6025.4216
55.3684,6019.0632
55.3854,6036.14
55.4024,6071.9925
55.4194,6054.2035
55.4364,5908.4992
55.4534,5979.6362
55.4704,5803.9609
55.4874,5872.6496
55.5044,5871.465
55.5214,5922.4677
55.5384,5895.2754
55.5554,5934.7458
55.5724,5832.9713
55.5894,5992.3347
55.6064,5890.06
55.6234,5842.7527
55.6404,5862.3421
55.6574,5856.7052
55.6744,5796.1261
55.6914,5924.0563
55.7084,5823.1117
55.7254,5884.0416
55.7424,5763.2769
55.7594,5765.8053
55.7764,5723.663
55.7934,5775.1869
55.8104,5690.8125
55.8274,5697.6128
55.8444,5786.2089
55.8614,5781.4385
55.8784,5785.1905
55.8954,5832.0488
55.9124,5845.1857
55.9294,5835.3962
55.9464,5823.7323
55.9634,5750.4213
55.9804,5734.343
55.9974,5779.1434
56.0144,5745.5693
56.0314,5737.5642
56.0484,5787.171
56.0654,5823.7294
56.0824,5665.5681
56.0994,5611.2982
56.1164,5782.9764
56.1334,5657.9633
56.1504,5831.4221
56.1674,5814.3216
56.1844,5775.6996
56.2014,5753.0463
56.2184,5771.0402
56.2354,5667.3054
56.2524,5683.9588
56.2694,5732.0991
56.2864,5689.3844
56.3034,5786.7518
56.3204,5849.7753
56.3374,5692.6783
56.3544,5732.5549
56.3714,5880.4825
56.3884,5804.2002
56.4054,5757.3873
56.4224,5681.4162
56.4394,5732.4251
56.4564,5853.6517
56.4734,5688.5799
56.4904,5651.5445
56.5074,5660.3765
56.5244,5689.0661
56.5414,5749.4429
56.5584,5822.4238
56.5754,5761.4925
56.5924,5765.4516
56.6094,5758.288
56.6264,5674.7038
56.6434,5626.8207
56.6604,5773.9265
56.6774,5674.1965
56.6944,5701.6517
56.7114,5787.7932
56.7284,5796.7789
56.7454,5765.7497
56.7624,5765.06
56.7794,5686.2189
56.7964,5596.9459
56.8134,5610.927
56.8304,5671.7867
56.8474,5702.6284
56.8644,5740.0783
56.8814,5763.7384
56.8984,5747.6826
56.9154,5738.4167
56.9324,5686.866
56.9494,5613.6609
56.9664,5601.5701
56.9834,5642.6285
57.0004,5739.2437
57.0174,5803.7473
57.0344,5788.4494
57.0514,5811.9889
57.0684,5774.4563
57.0854,5773.2999
57.1024,5772.7043
57.1194,5749.7907
57.1364,5727.5791
57.1534,5699.4518
57.1704,5769.6575
57.1874,5675.0755
57.2044,5732.182
57.2214,5667.8245
57.2384,5767.9955
57.2554,5736.2625
57.2724,5668.539
57.2894,5789.9151
57.3064,5672.6553
57.3234,5746.8165
57.3404,5871.7078
57.3574,5689.13
57.3744,5764.9547
57.3914,5861.382
57.4084,5711.9695
57.4254,5797.9706
57.4424,5696.6715
57.4594,5766.4874
57.4764,5667.5801
57.4934,5820.988
57.5104,5791.8556
57.5274,5790.5078
57.5444,5817.949
57.5614,5685.0166
57.5784,5673.1271
57.5954,5800.7016
57.6124,5882.4241
57.6294,5802.9926
57.6464,5735.2207
57.6634,5718.362
57.6804,5738.0822
57.6974,5802.3711
57.7144,5725.2715
57.7314,5774.1029
57.7484,5784.5747
57.7654,5847.3805
57.7824,5899.5406
57.7994,5799.3879
57.8164,5773.7895
57.8334,5802.5005
57.8504,5799.8811
57.8674,5773.6133
57.8844,5792.7672
57.9014,5791.5439
57.9184,5853.1535
57.9354,5919.1436
57.9524,5849.7421
57.9694,5812.0179
57.9864,5918.1604
58.0034,5906.7581
58.0204,5757.1641
58.0374,5750.5539
58.0544,5889.7735
58.0714,5870.7478
58.0884,5871.392
58.1054,5884.5617
58.1224,5895.7829
58.1394,5903.0148
58.1564,5912.4809
58.1734,5862.9745
58.1904,5747.5016
58.2074,5893.3239
58.2244,5851.8708
58.2414,5898.7311
58.2584,5950.1087
58.2754,5865.023
58.2924,5848.5447
58.3094,5791.4843
58.3264,5682.2422
58.3434,5852.8317
58.3604,5749.4499
58.3774,5793.7931
58.3944,5652.9698
58.4114,5803.1256
58.4284,5774.9526
58.4454,5776.0706
58.4624,5796.0798
58.4794,5703.5621
58.4964,5847.7596
58.5134,5679.3891
58.5304,5780.8131
58.5474,5786.959
58.5644,5779.6243
58.5814,5823.636
58.5984,5767.1089
58.6154,5736.6367
58.6324,5750.3072
58.6494,5708.2039
58.6664,5725.1619
58.6834,5631.843
58.7004,5769.5408
58.7174,5780.7466
58.7344,5664.9214
58.7514,5708.2711
58.7684,5779.6596
58.7854,5761.7171
58.8024,5691.2539
58.8194,5785.7759
58.8364,5750.1914
58.8534,5716.7937
58.8704,5695.6776
58.8874,5762.5345
58.9044,5762.8202
58.9214,5707.4877
58.9384,5719.2109
58.9554,5639.3714
58.9724,5719.2697
58.9894,5767.8566
59.0064,5810.931
59.0234,5784.7853
59.0404,5782.1324
59.0574,5864.6101
59.0744,5809.1145
59.0914,5623.6997
59.1084,5719.6153
59.1254,5740.7442
59.1424,5728.4538
59.1594,5739.0651
59.1764,5716.1553
59.1934,5738.0474
59.2104,5814.7449
59.2274,5686.1861
59.2444,5637.5741
59.2614,5726.0855
59.2784,5687.7892
59.2954,5734.0724
59.3124,5628.2795
59.3294,5621.0369
59.3464,5806.2997
59.3634,5773.0851
59.3804,5908.4505
59.3974,5678.0319
59.4144,5769.2477
59.4314,5769.9914
59.4484,5716.6908
59.4654,5755.0215
59.4824,5826.4577
59.4994,5775.3687
59.5164,5851.8552
59.5334,5812.042
59.5504,5678.6285
59.5674,5690.4101
59.5844,5687.9984
59.6014,5658.9061
59.6184,5650.3001
59.6354,5771.4018
59.6524,5758.6525
59.6694,5667.6521
59.6864,5657.9286
59.7034,5704.2678
59.7204,5720.1974
59.7374,5768.3817
59.7544,5823.3687
59.7714,5777.1753
59.7884,5724.4432
59.8054,5691.3065
59.8224,5754.4962
59.8394,5745.2228
59.8564,5734.94
59.8734,5800.2822
59.8904,5747.8047
59.9074,5826.568
59.9244,5808.924
59.9414,5701.6811
59.9584,5729.0966
59.9754,5696.6639
59.9924,5873.3787
60.0094,5799.9593
60.0264,5604.3148
60.0434,5719.1802
60.0604,5768.6993
60.0774,5640.3691
60.0944,5668.3231
60.1114,5781.9181
60.1284,5795.2713
60.1454,5763.2636
60.1624,5711.4639
60.1794,5687.7676
60.1964,5674.0241
60.2134,5821.0534
60.2304,5680.6535
60.2474,5687.5725
60.2644,5760.4194
60.2814,5799.5742
60.2984,5746.0699
60.3154,5606.9003
60.3324,5640.3184
60.3494,5647.9986
60.3664,5685.6567
60.3834,5778.595
60.4004,5724.27
60.4174,5946.4995
60.4344,5664.7051
60.4514,5761.1387
60.4684,5777.3186
60.4854,5639.1068
60.5024,5677.5226
60.5194,5715.4161
60.5364,5735.3536
60.5534,5786.9492
60.5704,5806.0352
60.5874,5672.601
60.6044,5718.0638
60.6214,5752.0111
60.6384,5780.0445
60.6554,5789.23
60.6724,5747.3943
60.6894,5751.5659
60.7064,5847.0221
60.7234,5781.7123
60.7404,5756.3865
60.7574,5808.1127
60.7744,5754.7048
60.7914,5718.8745
60.8084,5674.2022
60.8254,5654.5585
60.8424,5686.0835
60.8594,5693.0315
60.8764,5680.7704
60.8934,5681.8926
60.9104,5726.6959
60.9274,5798.0769
60.9444,5779.3334
60.9614,5760.3526
60.9784,5698.4536
60.9954,5608.8356
61.0124,5624.1122
61.0294,5714.0906
61.0464,5816.5266
61.0634,5760.3955
61.0804,5716.8589
61.0974,5708.4399
61.1144,5760.6333
61.1314,5786.3294
61.1484,5737.0416
61.1654,5800.4506
61.1824,5634.0229
61.1994,5658.0031
61.2164,5661.7142
61.2334,5596.3269
61.2504,5718.0877
61.2674,5686.1587
61.2844,5823.6105
61.3014,5783.5999
61.3184,5736.7072
61.3354,5743.9905
61.3524,5742.0306
61.3694,5890.9843
61.3864,5738.8783
61.4034,5851.5493
61.4204,5745.6795
61.4374,5787.7714
61.4544,5737.4569
61.4714,5737.6245
61.4884,5653.8233
61.5054,5763.5977
61.5224,5704.808
61.5394,5718.4372
61.5564,5762.5804
61.5734,5734.0699
61.5904,5747.6458
61.6074,5732.072
61.6244,5791.1354
61.6414,5855.7163
61.6584,5763.6614
61.6754,5702.6864
61.6924,5801.4298
61.7094,5853.6993
61.7264,5709.1943
61.7434,5721.4982
61.7604,5733.3015
61.7774,5757.5561
61.7944,5755.9592
61.8114,5773.9961
61.8284,5750.545
61.8454,5676.0809
61.8624,5692.5128
61.8794,5708.3287
61.8964,5747.0401
61.9134,5775.768
61.9304,5815.8237
61.9474,5861.5886
61.9644,5807.9589
61.9814,5739.3942
61.9984,5764.8953
62.0154,5789.8511
62.0324,5831.776
62.0494,5902.5673
62.0664,5785.2043
62.0834,5840.8861
62.1004,5816.104
62.1174,5849.3938
62.1344,5818.8605
62.1514,5822.2997
62.1684,5834.3336
62.1854,5705.2665
62.2024,5603.7583
62.2194,5778.4701
62.2364,5866.9037
62.2534,5799.1433
62.2704,5743.5348
62.2874,5788.5031
62.3044,5874.8586
62.3214,5853.8944
62.3384,5581.2986
62.3554,5692.2829
62.3724,5826.9036
62.3894,5876.7312
62.4064,5889.6158
62.4234,5904.681
62.4404,5737.1213
62.4574,5801.4267
62.4744,5808.4661
62.4914,5824.7519
62.5084,5797.7921
62.5254,5856.8552
62.5424,5919.6472
62.5594,5738.0821
62.5764,5753.7909
62.5934,5816.1619
62.6104,5754.7023
62.6274,5682.4943
62.6444,5599.7695
62.6614,5762.0797
62.6784,5807.0403
62.6954,5851.4374
62.7124,5921.5405
62.7294,5975.3013
62.7464,5868.784
62.7634,5786.9627
62.7804,5832.472
62.7974,5809.3666
62.8144,5736.9286
62.8314,5758.8278
62.8484,5797.0837
62.8654,5805.1978
62.8824,5885.1009
62.8994,5859.1239
62.9164,5739.5184
62.9334,5746.088
62.9504,5790.579
62.9674,5808.2294
62.9844,5836.3685
63.0014,5869.2435
63.0184,5836.2567
63.0354,5811.7033
63.0524,5765.6773
63.0694,5736.4798
63.0864,5636.6571
63.1034,5734.6091
63.1204,5857.3981
63.1374,5872.1667
63.1544,5714.4879
63.1714,5817.183
63.1884,5752.9094
63.2054,5797.049
63.2224,5679.7575
63.2394,5866.7065
63.2564,5751.1729
63.2734,5763.4595
63.2904,5992.4198
63.3074,5620.2949
63.3244,5826.7906
63.3414,5660.7592
63.3584,5883.9892
63.3754,5772.4822
63.3924,5796.0628
63.4094,5738.3187
63.4264,5818.8237
63.4434,5813.0205
63.4604,5874.3858
63.4774,5711.9852
63.4944,5755.2303
63.5114,5741.7906
63.5284,5866.0778
63.5454,5842.5842
63.5624,5791.9004
63.5794,5730.5235
63.5964,5719.494
63.6134,5733.8526
63.6304,5692.6058
63.6474,5703.5841
63.6644,5775.8152
63.6814,5740.6827
63.6984,5770.0865
63.7154,5814.3715
63.7324,5851.8049
63.7494,5906.634
63.7664,5878.5342
63.7834,5831.3643
63.8004,5753.6624
63.8174,5734.2839
63.8344,5744.6229
63.8514,5704.4353
63.8684,5800.22
63.8854,5810.7743
63.9024,5746.7294
63.9194,5759.6117
63.9364,5712.9797
63.9534,5644.8791
63.9704,5655.5573
63.9874,5853.0642
64.0044,5854.406
64.0214,5756.4091
64.0384,5795.6689
64.0554,5755.6941
64.0724,5646.1023
64.0894,5777.9722
64.1064,5807.1821
64.1234,5967.0742
64.1404,5706.5199
64.1574,5738.649
64.1744,5720.8329
64.1914,5696.1955
64.2084,5842.4133
64.2254,5835.2789
64.2424,6000.4096
64.2594,5778.2174
64.2764,5665.9702
64.2934,5824.9672
64.3104,5816.8965
64.3274,5671.9316
64.3444,5920.6869
64.3614,5638.33
64.3784,5704.6627
64.3954,5838.7349
64.4124,5794.037
64.4294,5832.6858
64.4464,5859.1815
64.4634,5834.0056
64.4804,5749.7063
64.4974,5789.5513
64.5144,5797.4881
64.5314,5846.2427
64.5484,5796.417
64.5654,5781.8343
64.5824,5721.5312
64.5994,5725.5878
64.6164,5728.5617
64.6334,5889.0528
64.6504,5804.6064
64.6674,5804.3061
64.6844,5900.3007
64.7014,5875.9015
64.7184,5847.8068
64.7354,5886.7229
64.7524,5846.9847
64.7694,5841.0861
64.7864,5835.3423
64.8034,5791.9023
64.8204,5797.6675
64.8374,5794.6109
64.8544,5820.3998
64.8714,5718.0614
64.8884,5761.8113
64.9054,5880.9633
64.9224,5822.1223
64.9394,5818.2151
64.9564,5768.7501
64.9734,5831.8062
64.9904,5827.1381
65.0074,5793.5887
65.0244,5890.9073
65.0414,5912.7052
65.0584,5881.5004
65.0754,6046.6409
65.0924,5855.2263
65.1094,5815.7255
65.1264,5829.1126
65.1434,5817.0465
65.1604,5932.3967
65.1774,5934.3069
65.1944,5898.8148
65.2114,5897.8824
65.2284,5934.4222
65.2454,5967.2242
65.2624,5739.602
65.2794,5814.34
65.2964,5753.7866
65.3134,5852.9871
65.3304,5875.305
65.3474,5889.9964
65.3644,5826.8749
65.3814,5776.9484
65.3984,5774.1256
65.4154,5847.1864
65.4324,5765.6786
65.4494,5759.6757
65.4664,5791.8125
65.4834,5817.9118
65.5004,5833.2636
65.5174,5876.8329
65.5344,5840.7497
65.5514,5895.853
65.5684,5863.8129
65.5854,5833.6293
65.6024,5880.5272
65.6194,5811.0358
65.6364,5777.328
65.6534,5737.7257
65.6704,5792.4241
65.6874,5907.5247
65.7044,5900.4057
65.7214,5926.1149
65.7384,5841.156
65.7554,5823.415
65.7724,5851.1023
65.7894,5828.3534
65.8064,5864.5153
65.8234,5825.9889
65.8404,5876.4669
65.8574,5897.0787
65.8744,5799.9711
65.8914,5815.0245
65.9084,5788.392
65.9254,5775.6733
65.9424,5886.2003
65.9594,5884.3036
65.9764,5925.0891
65.9934,5792.2378
66.0104,5803.7925
66.0274,5729.684
66.0444,5852.2586
66.0614,5796.39
66.0784,5775.4671
66.0954,5783.5567
66.1124,5755.0079
66.1294,5891.6194
66.1464,6051.0695
66.1634,5907.1515
66.1804,5871.5534
66.1974,5876.6031
66.2144,5964.4129
66.2314,5908.3506
66.2484,5873.1653
66.2654,5961.8386
66.2824,5948.5843
66.2994,5933.8727
66.3164,5912.7347
66.3334,5935.8803
66.3504,5899.4521
66.3674,5798.4653
66.3844,5885.3971
66.4014,5803.432
66.4184,5883.4473
66.4354,5789.9646
66.4524,5986.1508
66.4694,5880.3345
66.4864,6016.6817
66.5034,6010.0688
66.5204,5988.0526
66.5374,5899.022
66.5544,5890.8362
66.5714,5873.2896
66.5884,5941.2455
66.6054,5971.8107
66.6224,5893.5088
66.6394,5915.6075
66.6564,5943.2762
66.6734,6015.1767
66.6904,6035.2266
66.7074,5923.9828
66.7244,5902.6257
66.7414,5986.9924
66.7584,5967.9748
66.7754,5924.0551
66.7924,5926.1129
66.8094,5920.5616
66.8264,5905.6606
66.8434,5855.613
66.8604,5808.2745
66.8774,5892.3549
66.8944,5918.9325
66.9114,5867.538
66.9284,5881.2534
66.9454,5867.1557
66.9624,5782.1995
66.9794,5945.8994
66.9964,6072.9175
67.0134,5915.8404
67.0304,5876.6385
67.0474,5934.0814
67.0644,5827.4529
67.0814,5713.6172
67.0984,5802.6592
67.1154,5853.2992
67.1324,5735.5805
67.1494,5883.1315
67.1664,5848.8811
67.1834,5791.1118
67.2004,5827.47
67.2174,5865.2586
67.2344,5653.5881
67.2514,5824.3015
67.2684,5713.7056
67.2854,5855.5769
67.3024,5829.0616
67.3194,5846.8433
67.3364,5865.9923
67.3534,5767.5091
67.3704,5833.1674
67.3874,5847.4582
67.4044,5825.6878
67.4214,5700.632
67.4384,5703.0719
67.4554,5803.8051
67.4724,5770.9126
67.4894,5810.8471
67.5064,5720.7788
67.5234,5703.845
67.5404,5666.2521
67.5574,5832.6861
67.5744,5733.1396
67.5914,5760.959
67.6084,5723.699
67.6254,5745.6647
67.6424,5822.5788
67.6594,5850.6688
67.6764,5851.8156
67.6934,5769.2153
67.7104,5813.1013
67.7274,5769.6864
67.7444,5739.2317
67.7614,5822.7444
67.7784,5841.3422
67.7954,5772.1472
67.8124,5818.1775
67.8294,5831.465
67.8464,5787.2807
67.8634,5784.6381
67.8804,5709.8916
67.8974,5663.9736
67.9144,5780.3952
67.9314,5811.4201
67.9484,5726.0956
67.9654,5787.3016
67.9824,5784.1571
67.9994,5740.4612
68.0164,5690.6075
68.0334,5773.0681
68.0504,5738.7936
68.0674,5728.6877
68.0844,5693.6941
68.1014,5781.9886
68.1184,5666.9184
68.1354,5781.6393
68.1524,5647.9538
68.1694,5591.5196
68.1864,5692.2321
68.2034,5739.2108
68.2204,5845.9302
68.2374,5813.9696
68.2544,5753.6101
68.2714,5773.2005
68.2884,5816.5327
68.3054,5849.5426
68.3224,5821.3301
68.3394,5735.2975
68.3564,5873.6572
68.3734,5644.8066
68.3904,5750.2616
68.4074,5759.5074
68.4244,5668.0612
68.4414,5815.7605
68.4584,5783.1535
68.4754,5755.6671
68.4924,5888.314
68.5094,5826.5731
68.5264,5723.8628
68.5434,5706.3157
68.5604,5815.3083
68.5774,5797.173
68.5944,5755.8456
68.6114,5717.3087
68.6284,5777.6241
68.6454,5790.4503
68.6624,5818.7737
68.6794,5827.0373
68.6964,5798.652
68.7134,5880.5679
68.7304,5819.9817
68.7474,5632.18
68.7644,5717.7729
68.7814,5649.8711
68.7984,5739.0427
68.8154,5745.4017
68.8324,5677.8241
68.8494,5686.4208
68.8664,5709.8592
68.8834,5696.7269
68.9004,5743.0688
68.9174,5730.3675
68.9344,5733.575
68.9514,5739.5154
68.9684,5775.4587
68.9854,5584.2462
69.0024,5749.9396
69.0194,5891.5731
69.0364,5663.2285
69.0534,5738.8917
69.0704,5699.848
69.0874,5785.094
69.1044,5877.0044
69.1214,5767.0428
69.1384,5788.6317
69.1554,5709.3335
69.1724,5620.8807
69.1894,5790.229
69.2064,5935.7488
69.2234,5762.3744
69.2404,5782.396
69.2574,5795.7171
69.2744,5839.8373
69.2914,5776.7438
69.3084,5690.7898
69.3254,5714.0893
69.3424,5892.1844
69.3594,5868.2877
69.3764,5774.2155
69.3934,5687.6185
69.4104,5836.7474
69.4274,5818.4368
69.4444,5780.2732
69.4614,5772.3816
69.4784,5687.2818
69.4954,5739.6792
69.5124,5774.4425
69.5294,5696.8763
69.5464,5707.2734
69.5634,5758.8371
69.5804,5654.9497
69.5974,5683.9622
69.6144,5765.2216
69.6314,5708.8668
69.6484,5832.58
69.6654,5896.3671
69.6824,5855.7704
69.6994,5870.7755
69.7164,5853.5479
69.7334,5914.9823
69.7504,5822.9393
69.7674,5729.7161
69.7844,5662.7452
69.8014,5708.1672
69.8184,5857.2813
69.8354,5881.8085
69.8524,5835.0743
69.8694,5787.9375
69.8864,5744.6055
69.9034,5634.7538
69.9204,5757.1441
69.9374,5782.2697
69.9544,5782.1865
69.9714,5743.9374
69.9884,5803.6593
